GCD Test
Bias: 5000.000000
IV_34254_025_PSS_HM_XX_DIODEHALFPSTOP_GRConnected_Irradiated
Date/Time: 5/14/2021 3:52:32 PM
Sensor Name: DIODEHALFPSTOP
Type: P
Annealing Status: Irradiated, Second Step of Annealing
Environment: 20C
Tester: Andrew Kent

Time Delay per Ramp Step (s): 1.000

CV Time Delay per Measurement (s) :0.500

AC Voltage (V): 0.500

Current Number of measurements per voltage: 4.000

IV Time Delay per Measurement (s) :0.000


BiasVoltage	Total Current_Avg	Total Current_0	Total Current_1	Total Current_2	Total Current_3	Bias Current_Avg	Bias Current_0	Bias Current_1	Bias Current_2	Bias Current_3	Temperature	Air_Temp	Humidity	Dewpoint	
  -10.0000	-2.8290E-7	-2.8290E-7	-2.8340E-7	-2.8250E-7	-2.8280E-7	-1.492936E-7	-1.494376E-7	-1.494671E-7	-1.489671E-7	-1.493026E-7	  -20.2119	   10.6030	    3.2922	  -31.8865	
  -20.0000	-3.9285E-7	-3.9270E-7	-3.9350E-7	-3.9310E-7	-3.9210E-7	-2.085475E-7	-2.083552E-7	-2.079178E-7	-2.081242E-7	-2.097929E-7	  -20.1279	   10.6030	    3.2571	  -31.9971	
  -30.0000	-4.7557E-7	-4.7640E-7	-4.7710E-7	-4.7410E-7	-4.7470E-7	-2.569968E-7	-2.569699E-7	-2.575417E-7	-2.567385E-7	-2.567372E-7	  -20.0567	   10.5735	    3.2264	  -32.1150	
  -40.0000	-5.5035E-7	-5.4970E-7	-5.5110E-7	-5.5040E-7	-5.5020E-7	-2.982209E-7	-2.989785E-7	-2.977713E-7	-2.976184E-7	-2.985155E-7	  -19.9524	   10.5940	    3.1879	  -32.2248	
  -50.0000	-6.1563E-7	-6.1580E-7	-6.1380E-7	-6.1690E-7	-6.1600E-7	-3.374440E-7	-3.378989E-7	-3.367289E-7	-3.366379E-7	-3.385103E-7	  -19.8914	   10.5793	    3.1565	  -32.3365	
  -60.0000	-6.8320E-7	-6.8430E-7	-6.8270E-7	-6.8250E-7	-6.8330E-7	-3.754294E-7	-3.758948E-7	-3.757514E-7	-3.755590E-7	-3.745126E-7	  -19.7947	   10.4651	    3.1199	  -32.5348	
  -70.0000	-7.3635E-7	-7.3800E-7	-7.3830E-7	-7.3650E-7	-7.3260E-7	-4.056492E-7	-4.054906E-7	-4.057051E-7	-4.057135E-7	-4.056874E-7	  -19.7566	   10.4651	    3.0968	  -32.6110	
  -80.0000	-7.8718E-7	-7.8380E-7	-7.8800E-7	-7.8650E-7	-7.9040E-7	-4.400387E-7	-4.414392E-7	-4.397587E-7	-4.390429E-7	-4.399141E-7	  -19.7057	   10.5651	    3.0579	  -32.6722	
  -90.0000	-8.3815E-7	-8.3920E-7	-8.3730E-7	-8.3810E-7	-8.3800E-7	-4.690437E-7	-4.698494E-7	-4.682297E-7	-4.692475E-7	-4.688482E-7	  -19.6777	   10.5467	    3.0430	  -32.7347	
 -100.0000	-8.9095E-7	-8.8520E-7	-8.8840E-7	-8.9250E-7	-8.9770E-7	-5.026884E-7	-5.015752E-7	-5.008828E-7	-5.044859E-7	-5.038098E-7	  -19.6319	   10.6355	    3.0003	  -32.8188	
 -110.0000	-9.4180E-7	-9.3870E-7	-9.3710E-7	-9.4460E-7	-9.4680E-7	-5.325493E-7	-5.337860E-7	-5.321265E-7	-5.324641E-7	-5.318204E-7	  -19.6141	   10.6355	    2.9709	  -32.9195	
 -120.0000	-9.8923E-7	-9.9100E-7	-9.9340E-7	-9.8780E-7	-9.8470E-7	-5.591784E-7	-5.570130E-7	-5.585431E-7	-5.591295E-7	-5.620279E-7	  -19.6014	   10.5724	    2.9412	  -33.0653	
 -130.0000	-1.0338E-6	-1.0310E-6	-1.0310E-6	-1.0350E-6	-1.0380E-6	-5.902738E-7	-5.904458E-7	-5.917439E-7	-5.884675E-7	-5.904382E-7	  -19.5912	   10.4489	    2.9231	  -33.2120	
 -140.0000	-1.0773E-6	-1.0800E-6	-1.0780E-6	-1.0760E-6	-1.0750E-6	-6.169844E-7	-6.181521E-7	-6.168072E-7	-6.164669E-7	-6.165114E-7	  -19.5963	   10.4576	    2.8887	  -33.3270	
 -150.0000	-1.1220E-6	-1.1170E-6	-1.1200E-6	-1.1260E-6	-1.1250E-6	-6.455379E-7	-6.471811E-7	-6.452980E-7	-6.439163E-7	-6.457562E-7	  -19.6065	   10.4576	    2.8653	  -33.4098	
 -160.0000	-1.1580E-6	-1.1550E-6	-1.1590E-6	-1.1610E-6	-1.1570E-6	-6.680135E-7	-6.677920E-7	-6.699195E-7	-6.675789E-7	-6.667635E-7	  -19.6192	   10.4648	    2.8504	  -33.4578	
 -170.0000	-1.1945E-6	-1.1930E-6	-1.1960E-6	-1.1950E-6	-1.1940E-6	-6.891304E-7	-6.855632E-7	-6.888928E-7	-6.892851E-7	-6.927805E-7	  -19.6548	   10.3985	    2.8302	  -33.5752	
 -180.0000	-1.2405E-6	-1.2360E-6	-1.2420E-6	-1.2420E-6	-1.2420E-6	-7.173184E-7	-7.202765E-7	-7.194150E-7	-7.159242E-7	-7.136579E-7	  -19.6523	   10.3298	    2.7992	  -33.7336	
 -190.0000	-1.2725E-6	-1.2750E-6	-1.2710E-6	-1.2730E-6	-1.2710E-6	-7.370747E-7	-7.388181E-7	-7.348010E-7	-7.382362E-7	-7.364436E-7	  -19.6930	   10.2539	    2.7789	  -33.8586	
 -200.0000	-1.3110E-6	-1.2990E-6	-1.3070E-6	-1.3170E-6	-1.3210E-6	-7.645330E-7	-7.666007E-7	-7.647494E-7	-7.628637E-7	-7.639181E-7	  -19.7438	   10.2266	    2.7584	  -33.9522	
 -210.0000	-1.3505E-6	-1.3530E-6	-1.3490E-6	-1.3500E-6	-1.3500E-6	-7.869550E-7	-7.872701E-7	-7.860952E-7	-7.869754E-7	-7.874794E-7	  -19.7769	   10.1666	    2.7549	  -34.0056	
 -220.0000	-1.3883E-6	-1.3830E-6	-1.3840E-6	-1.3910E-6	-1.3950E-6	-8.143789E-7	-8.157342E-7	-8.152245E-7	-8.131469E-7	-8.134099E-7	  -19.8125	   10.1622	    2.7173	  -34.1476	
 -230.0000	-1.4220E-6	-1.4260E-6	-1.4190E-6	-1.4230E-6	-1.4200E-6	-8.269026E-7	-8.284504E-7	-8.253982E-7	-8.268480E-7	-8.269139E-7	  -19.8456	   10.0485	    2.7125	  -34.2422	
 -240.0000	-1.4383E-6	-1.4360E-6	-1.4420E-6	-1.4380E-6	-1.4370E-6	-8.460258E-7	-8.460882E-7	-8.490571E-7	-8.456374E-7	-8.433206E-7	  -19.8914	   10.1067	    2.6837	  -34.3105	
 -250.0000	-1.4712E-6	-1.4720E-6	-1.4660E-6	-1.4730E-6	-1.4740E-6	-8.654358E-7	-8.670915E-7	-8.658756E-7	-8.654973E-7	-8.632788E-7	  -19.9423	   10.1688	    2.6714	  -34.3150	
 -260.0000	-1.5025E-6	-1.5000E-6	-1.5020E-6	-1.5040E-6	-1.5040E-6	-8.890663E-7	-8.911093E-7	-8.886443E-7	-8.887370E-7	-8.877748E-7	  -19.9473	   10.1613	    2.6553	  -34.3812	
 -270.0000	-1.5277E-6	-1.5280E-6	-1.5270E-6	-1.5240E-6	-1.5320E-6	-9.074896E-7	-9.077489E-7	-9.074006E-7	-9.082455E-7	-9.065633E-7	  -19.9931	   10.1698	    2.6496	  -34.3970	
 -280.0000	-1.5585E-6	-1.5600E-6	-1.5600E-6	-1.5560E-6	-1.5580E-6	-9.204345E-7	-9.226451E-7	-9.190894E-7	-9.201221E-7	-9.198815E-7	  -20.0262	   10.1592	    2.6278	  -34.4875	
 -290.0000	-1.5815E-6	-1.5820E-6	-1.5790E-6	-1.5820E-6	-1.5830E-6	-9.377996E-7	-9.394921E-7	-9.376503E-7	-9.386300E-7	-9.354260E-7	  -20.0593	   10.2131	    2.6161	  -34.4962	
 -300.0000	-1.6132E-6	-1.6150E-6	-1.6110E-6	-1.6100E-6	-1.6170E-6	-9.556304E-7	-9.607804E-7	-9.561915E-7	-9.546952E-7	-9.508545E-7	  -20.0771	   10.1727	    2.5867	  -34.6371	
 -310.0000	-1.6330E-6	-1.6340E-6	-1.6300E-6	-1.6340E-6	-1.6340E-6	-9.689240E-7	-9.757938E-7	-9.693453E-7	-9.674627E-7	-9.630943E-7	  -20.0796	   10.1550	    2.5765	  -34.6884	
 -320.0000	-1.6640E-6	-1.6670E-6	-1.6630E-6	-1.6620E-6	-1.6640E-6	-9.862757E-7	-9.889563E-7	-9.847213E-7	-9.847433E-7	-9.866818E-7	  -20.1051	   10.1209	    2.5667	  -34.7496	
 -330.0000	-1.6915E-6	-1.6970E-6	-1.6950E-6	-1.6930E-6	-1.6810E-6	-9.986667E-7	-9.985600E-7	-1.000671E-6	-9.994068E-7	-9.960288E-7	  -20.1127	   10.1417	    2.5503	  -34.8001	
 -340.0000	-1.7000E-6	-1.6940E-6	-1.7000E-6	-1.7030E-6	-1.7030E-6	-1.012251E-6	-1.014768E-6	-1.015581E-6	-1.010515E-6	-1.008140E-6	  -20.1508	   10.1103	    2.5316	  -34.8950	
 -350.0000	-1.7235E-6	-1.7210E-6	-1.7280E-6	-1.7210E-6	-1.7240E-6	-1.034057E-6	-1.029224E-6	-1.034522E-6	-1.034925E-6	-1.037557E-6	  -20.1559	   10.1228	    2.5193	  -34.9355	
 -360.0000	-1.7523E-6	-1.7470E-6	-1.7520E-6	-1.7530E-6	-1.7570E-6	-1.045733E-6	-1.048103E-6	-1.045182E-6	-1.045040E-6	-1.044609E-6	  -20.1686	   10.0810	    2.5155	  -34.9787	
 -370.0000	-1.7827E-6	-1.7820E-6	-1.7840E-6	-1.7870E-6	-1.7780E-6	-1.053080E-6	-1.056609E-6	-1.052686E-6	-1.051177E-6	-1.051847E-6	  -20.1636	   10.0272	    2.4978	  -35.0855	
 -380.0000	-1.8033E-6	-1.8150E-6	-1.8070E-6	-1.8000E-6	-1.7910E-6	-1.072318E-6	-1.071525E-6	-1.072585E-6	-1.074403E-6	-1.070758E-6	  -20.1839	   10.1647	    2.4668	  -35.1184	
 -390.0000	-1.8257E-6	-1.8240E-6	-1.8280E-6	-1.8310E-6	-1.8200E-6	-1.083687E-6	-1.087188E-6	-1.083987E-6	-1.081342E-6	-1.082232E-6	  -20.1864	   10.1647	    2.4513	  -35.1814	
 -400.0000	-1.8362E-6	-1.8370E-6	-1.8440E-6	-1.8310E-6	-1.8330E-6	-1.098147E-6	-1.099879E-6	-1.098233E-6	-1.098226E-6	-1.096249E-6	  -20.1763	   10.1484	    2.4500	  -35.1975	
 -410.0000	-1.8508E-6	-1.8570E-6	-1.8540E-6	-1.8440E-6	-1.8480E-6	-1.103872E-6	-1.101667E-6	-1.106268E-6	-1.101903E-6	-1.105649E-6	  -20.1737	   10.2199	    2.4333	  -35.2183	
 -420.0000	-1.8750E-6	-1.8750E-6	-1.8790E-6	-1.8740E-6	-1.8720E-6	-1.119567E-6	-1.120724E-6	-1.123235E-6	-1.116265E-6	-1.118043E-6	  -20.1610	   10.2005	    2.4083	  -35.3344	
 -430.0000	-1.9000E-6	-1.9040E-6	-1.9000E-6	-1.8990E-6	-1.8970E-6	-1.136784E-6	-1.135264E-6	-1.138559E-6	-1.135542E-6	-1.137772E-6	  -20.1508	   10.2005	    2.4054	  -35.3462	
 -440.0000	-1.9290E-6	-1.9320E-6	-1.9280E-6	-1.9330E-6	-1.9230E-6	-1.145416E-6	-1.145347E-6	-1.146070E-6	-1.144552E-6	-1.145694E-6	  -20.1254	   10.1736	    2.3982	  -35.3944	
 -450.0000	-1.9375E-6	-1.9380E-6	-1.9490E-6	-1.9340E-6	-1.9290E-6	-1.156476E-6	-1.154514E-6	-1.158694E-6	-1.157180E-6	-1.155516E-6	  -20.1076	   10.0636	    2.3877	  -35.5114	
 -460.0000	-1.9555E-6	-1.9460E-6	-1.9560E-6	-1.9580E-6	-1.9620E-6	-1.169379E-6	-1.171076E-6	-1.170926E-6	-1.169506E-6	-1.166006E-6	  -20.0872	   10.0339	    2.3811	  -35.5589	
 -470.0000	-1.9700E-6	-1.9610E-6	-1.9660E-6	-1.9710E-6	-1.9820E-6	-1.183720E-6	-1.182524E-6	-1.186878E-6	-1.183028E-6	-1.182448E-6	  -20.0796	    9.9933	    2.3792	  -35.5940	
 -480.0000	-1.9985E-6	-1.9910E-6	-2.0000E-6	-2.0060E-6	-1.9970E-6	-1.194692E-6	-1.194504E-6	-1.195119E-6	-1.194746E-6	-1.194398E-6	  -20.0542	    9.9916	    2.3548	  -35.6975	
 -490.0000	-2.0245E-6	-2.0220E-6	-2.0330E-6	-2.0260E-6	-2.0170E-6	-1.201514E-6	-1.200750E-6	-1.201756E-6	-1.202322E-6	-1.201228E-6	  -20.0389	    9.9320	    2.3605	  -35.7132	
 -500.0000	-2.0178E-6	-2.0190E-6	-2.0130E-6	-2.0190E-6	-2.0200E-6	-1.202789E-6	-1.203868E-6	-1.203040E-6	-1.202318E-6	-1.201932E-6	  -20.0364	    9.8280	    2.3419	  -35.8614	
 -510.0000	-2.0515E-6	-2.0470E-6	-2.0510E-6	-2.0540E-6	-2.0540E-6	-1.225064E-6	-1.230523E-6	-1.228190E-6	-1.224537E-6	-1.217005E-6	  -20.0237	    9.8722	    2.3441	  -35.8225	
 -520.0000	-2.0565E-6	-2.0460E-6	-2.0580E-6	-2.0640E-6	-2.0580E-6	-1.228418E-6	-1.230768E-6	-1.226662E-6	-1.226110E-6	-1.230134E-6	  -19.9931	    9.9307	    2.3295	  -35.8455	
 -530.0000	-2.0885E-6	-2.0850E-6	-2.0910E-6	-2.0870E-6	-2.0910E-6	-1.245609E-6	-1.250145E-6	-1.241934E-6	-1.242985E-6	-1.247373E-6	  -19.9906	    9.8987	    2.3140	  -35.9331	
 -540.0000	-2.1225E-6	-2.1200E-6	-2.1290E-6	-2.1230E-6	-2.1180E-6	-1.266184E-6	-1.262133E-6	-1.262258E-6	-1.267329E-6	-1.273018E-6	  -19.9677	   10.0138	    2.3068	  -35.8878	
 -550.0000	-2.1320E-6	-2.1380E-6	-2.1330E-6	-2.1270E-6	-2.1300E-6	-1.262938E-6	-1.265325E-6	-1.260093E-6	-1.263091E-6	-1.263244E-6	  -19.9601	    9.9922	    2.2906	  -35.9717	
 -560.0000	-2.1407E-6	-2.1420E-6	-2.1480E-6	-2.1390E-6	-2.1340E-6	-1.265172E-6	-1.266211E-6	-1.267288E-6	-1.264885E-6	-1.262303E-6	  -19.9524	    9.9144	    2.2846	  -36.0495	
 -570.0000	-2.1587E-6	-2.1620E-6	-2.1640E-6	-2.1570E-6	-2.1520E-6	-1.279896E-6	-1.275694E-6	-1.284101E-6	-1.279937E-6	-1.279851E-6	  -19.9372	    9.9304	    2.2732	  -36.0884	
 -580.0000	-2.1892E-6	-2.1850E-6	-2.1890E-6	-2.1980E-6	-2.1850E-6	-1.301591E-6	-1.300736E-6	-1.301490E-6	-1.301022E-6	-1.303116E-6	  -19.9321	   10.0381	    2.2663	  -36.0473	
 -590.0000	-2.2045E-6	-2.2010E-6	-2.2050E-6	-2.2090E-6	-2.2030E-6	-1.300594E-6	-1.304400E-6	-1.300873E-6	-1.301311E-6	-1.295791E-6	  -19.9245	   10.0162	    2.2407	  -36.1745	
 -600.0000	-2.2047E-6	-2.2040E-6	-2.2030E-6	-2.2070E-6	-2.2050E-6	-1.312800E-6	-1.308001E-6	-1.314235E-6	-1.314981E-6	-1.313982E-6	  -19.9245	   10.0162	    2.2489	  -36.1382	
 -610.0000	-2.2273E-6	-2.2230E-6	-2.2290E-6	-2.2270E-6	-2.2300E-6	-1.320535E-6	-1.319819E-6	-1.323262E-6	-1.320553E-6	-1.318506E-6	  -19.8990	    9.9255	    2.2347	  -36.2612	
 -620.0000	-2.2465E-6	-2.2410E-6	-2.2460E-6	-2.2500E-6	-2.2490E-6	-1.334560E-6	-1.330171E-6	-1.330317E-6	-1.336334E-6	-1.341418E-6	  -19.9066	    9.8989	    2.2340	  -36.2817	
 -630.0000	-2.2720E-6	-2.2710E-6	-2.2710E-6	-2.2760E-6	-2.2700E-6	-1.342480E-6	-1.339763E-6	-1.341503E-6	-1.344135E-6	-1.344518E-6	  -19.9117	    9.8523	    2.2211	  -36.3701	
 -640.0000	-2.2815E-6	-2.2800E-6	-2.2830E-6	-2.2780E-6	-2.2850E-6	-1.350817E-6	-1.353900E-6	-1.350639E-6	-1.348258E-6	-1.350470E-6	  -19.9092	    9.8523	    2.1999	  -36.4648	
 -650.0000	-2.2775E-6	-2.2860E-6	-2.2820E-6	-2.2670E-6	-2.2750E-6	-1.355051E-6	-1.351589E-6	-1.352849E-6	-1.354735E-6	-1.361031E-6	  -19.9117	    9.8608	    2.2002	  -36.4578	
 -660.0000	-2.3080E-6	-2.3130E-6	-2.3170E-6	-2.3090E-6	-2.2930E-6	-1.362184E-6	-1.359457E-6	-1.364974E-6	-1.363469E-6	-1.360836E-6	  -19.9194	    9.8591	    2.1885	  -36.5116	
 -670.0000	-2.3270E-6	-2.3230E-6	-2.3250E-6	-2.3290E-6	-2.3310E-6	-1.377609E-6	-1.380484E-6	-1.378915E-6	-1.378445E-6	-1.372590E-6	  -19.9346	    9.8516	    2.1796	  -36.5565	
 -680.0000	-2.3460E-6	-2.3450E-6	-2.3400E-6	-2.3510E-6	-2.3480E-6	-1.381847E-6	-1.386934E-6	-1.384656E-6	-1.379837E-6	-1.375960E-6	  -19.9397	    9.8516	    2.1768	  -36.5694	
 -690.0000	-2.3492E-6	-2.3430E-6	-2.3480E-6	-2.3500E-6	-2.3560E-6	-1.390981E-6	-1.389080E-6	-1.392859E-6	-1.392537E-6	-1.389448E-6	  -19.9524	    9.8174	    2.1768	  -36.5920	
 -700.0000	-2.3713E-6	-2.3680E-6	-2.3700E-6	-2.3770E-6	-2.3700E-6	-1.405837E-6	-1.407200E-6	-1.409957E-6	-1.405805E-6	-1.400385E-6	  -19.9575	    9.7422	    2.1860	  -36.6004	
 -710.0000	-2.3857E-6	-2.4000E-6	-2.3880E-6	-2.3760E-6	-2.3790E-6	-1.410806E-6	-1.406727E-6	-1.411031E-6	-1.415276E-6	-1.410192E-6	  -19.9830	    9.7204	    2.1556	  -36.7526	
 -720.0000	-2.4073E-6	-2.4040E-6	-2.4170E-6	-2.4100E-6	-2.3980E-6	-1.415372E-6	-1.416020E-6	-1.413265E-6	-1.416954E-6	-1.415250E-6	  -19.9982	    9.7204	    2.1556	  -36.7526	
 -730.0000	-2.4095E-6	-2.4030E-6	-2.4080E-6	-2.4140E-6	-2.4130E-6	-1.414422E-6	-1.420483E-6	-1.414760E-6	-1.412223E-6	-1.410221E-6	  -19.9957	    9.7188	    2.1521	  -36.7696	
 -740.0000	-2.4087E-6	-2.4090E-6	-2.4050E-6	-2.4110E-6	-2.4100E-6	-1.416546E-6	-1.418206E-6	-1.418024E-6	-1.416749E-6	-1.413206E-6	  -19.9957	    9.7788	    2.1410	  -36.7807	
 -750.0000	-2.4197E-6	-2.4180E-6	-2.4130E-6	-2.4210E-6	-2.4270E-6	-1.427800E-6	-1.431917E-6	-1.430917E-6	-1.424689E-6	-1.423678E-6	  -20.0186	    9.7995	    2.1284	  -36.8254	
 -760.0000	-2.4455E-6	-2.4510E-6	-2.4410E-6	-2.4430E-6	-2.4470E-6	-1.438898E-6	-1.438653E-6	-1.443709E-6	-1.433869E-6	-1.439361E-6	  -20.0262	    9.7995	    2.1287	  -36.8239	
 -770.0000	-2.4465E-6	-2.4570E-6	-2.4460E-6	-2.4450E-6	-2.4380E-6	-1.426562E-6	-1.429993E-6	-1.427031E-6	-1.425412E-6	-1.423813E-6	  -20.0287	    9.7627	    2.1164	  -36.9054	
 -780.0000	-2.4410E-6	-2.4380E-6	-2.4410E-6	-2.4390E-6	-2.4460E-6	-1.442939E-6	-1.436518E-6	-1.441845E-6	-1.445580E-6	-1.447814E-6	  -20.0262	    9.7810	    2.1053	  -36.9448	
 -790.0000	-2.4910E-6	-2.4750E-6	-2.4910E-6	-2.5040E-6	-2.4940E-6	-1.455973E-6	-1.462994E-6	-1.457405E-6	-1.451406E-6	-1.452086E-6	  -20.0338	    9.6482	    2.0895	  -37.1064	
 -800.0000	-2.4938E-6	-2.4930E-6	-2.4940E-6	-2.4880E-6	-2.5000E-6	-1.469993E-6	-1.471765E-6	-1.470113E-6	-1.468053E-6	-1.470041E-6	  -20.0287	    9.6482	    2.1006	  -37.0545	
 -810.0000	-2.5413E-6	-2.5450E-6	-2.5450E-6	-2.5430E-6	-2.5320E-6	-1.474303E-6	-1.482493E-6	-1.472709E-6	-1.470996E-6	-1.471015E-6	  -20.0160	    9.6416	    2.0942	  -37.0885	
 -820.0000	-2.5180E-6	-2.5220E-6	-2.5190E-6	-2.5210E-6	-2.5100E-6	-1.468522E-6	-1.468228E-6	-1.473209E-6	-1.464279E-6	-1.468371E-6	  -20.0262	    9.6760	    2.0756	  -37.1537	
 -830.0000	-2.5155E-6	-2.5160E-6	-2.5100E-6	-2.5130E-6	-2.5230E-6	-1.479224E-6	-1.477405E-6	-1.477980E-6	-1.482147E-6	-1.479364E-6	  -20.0415	    9.6136	    2.0756	  -37.1947	
 -840.0000	-2.5320E-6	-2.5330E-6	-2.5310E-6	-2.5380E-6	-2.5260E-6	-1.472876E-6	-1.472843E-6	-1.471114E-6	-1.473568E-6	-1.473978E-6	  -20.0287	    9.6136	    2.0642	  -37.2486	
 -850.0000	-2.5465E-6	-2.5400E-6	-2.5420E-6	-2.5540E-6	-2.5500E-6	-1.489738E-6	-1.486313E-6	-1.489644E-6	-1.496123E-6	-1.486871E-6	  -20.0465	    9.6764	    2.0620	  -37.2179	
 -860.0000	-2.5728E-6	-2.5690E-6	-2.5750E-6	-2.5730E-6	-2.5740E-6	-1.496553E-6	-1.497663E-6	-1.495462E-6	-1.498040E-6	-1.495048E-6	  -20.0262	    9.6304	    2.0512	  -37.2993	
 -870.0000	-2.5730E-6	-2.5800E-6	-2.5780E-6	-2.5680E-6	-2.5660E-6	-1.499630E-6	-1.494843E-6	-1.501871E-6	-1.502450E-6	-1.499356E-6	  -20.0338	    9.6403	    2.0522	  -37.2883	
 -880.0000	-2.5827E-6	-2.5820E-6	-2.5880E-6	-2.5740E-6	-2.5870E-6	-1.505536E-6	-1.506478E-6	-1.504926E-6	-1.506510E-6	-1.504231E-6	  -20.0211	    9.6403	    2.0351	  -37.3701	
 -890.0000	-2.5953E-6	-2.5960E-6	-2.5900E-6	-2.5950E-6	-2.6000E-6	-1.512069E-6	-1.514567E-6	-1.511541E-6	-1.512949E-6	-1.509220E-6	  -20.0338	    9.5630	    2.0446	  -37.3754	
 -900.0000	-2.5955E-6	-2.5920E-6	-2.6050E-6	-2.5920E-6	-2.5930E-6	-1.505776E-6	-1.507826E-6	-1.507113E-6	-1.505663E-6	-1.502502E-6	  -20.0262	    9.5790	    2.0398	  -37.3876	
 -910.0000	-2.6018E-6	-2.5970E-6	-2.6040E-6	-2.6050E-6	-2.6010E-6	-1.510196E-6	-1.510670E-6	-1.507997E-6	-1.511764E-6	-1.510355E-6	  -20.0338	    9.5173	    2.0398	  -37.4282	
 -920.0000	-2.6225E-6	-2.6130E-6	-2.6070E-6	-2.6310E-6	-2.6390E-6	-1.532033E-6	-1.534636E-6	-1.534935E-6	-1.528314E-6	-1.530247E-6	  -20.0313	    9.5173	    2.0357	  -37.4480	
 -930.0000	-2.6488E-6	-2.6530E-6	-2.6510E-6	-2.6450E-6	-2.6460E-6	-1.535846E-6	-1.531984E-6	-1.531898E-6	-1.541178E-6	-1.538325E-6	  -20.0237	    9.5176	    2.0319	  -37.4660	
 -940.0000	-2.6770E-6	-2.6750E-6	-2.6850E-6	-2.6750E-6	-2.6730E-6	-1.539917E-6	-1.548731E-6	-1.542163E-6	-1.539207E-6	-1.529567E-6	  -20.0186	    9.5999	    2.0253	  -37.4439	
 -950.0000	-2.6828E-6	-2.6790E-6	-2.6900E-6	-2.6840E-6	-2.6780E-6	-1.549104E-6	-1.547132E-6	-1.544412E-6	-1.554060E-6	-1.550813E-6	  -20.0262	    9.5137	    2.0123	  -37.5633	
 -960.0000	-2.6820E-6	-2.6920E-6	-2.6850E-6	-2.6790E-6	-2.6720E-6	-1.545107E-6	-1.548320E-6	-1.544623E-6	-1.546414E-6	-1.541070E-6	  -20.0135	    9.5610	    2.0174	  -37.5077	
 -970.0000	-2.6880E-6	-2.6900E-6	-2.6970E-6	-2.6890E-6	-2.6760E-6	-1.546583E-6	-1.547532E-6	-1.549631E-6	-1.543172E-6	-1.545998E-6	  -19.9982	    9.6348	    2.0139	  -37.4761	
 -980.0000	-2.6830E-6	-2.6830E-6	-2.6780E-6	-2.6890E-6	-2.6820E-6	-1.543992E-6	-1.541501E-6	-1.538239E-6	-1.545551E-6	-1.550678E-6	  -19.9906	    9.5605	    1.9975	  -37.6050	
 -990.0000	-2.7150E-6	-2.7000E-6	-2.7180E-6	-2.7270E-6	-2.7150E-6	-1.561032E-6	-1.564037E-6	-1.560761E-6	-1.557848E-6	-1.561481E-6	  -20.0008	    9.5053	    2.0022	  -37.6181	
-1000.0000	-2.7127E-6	-2.7110E-6	-2.7110E-6	-2.7110E-6	-2.7180E-6	-1.565097E-6	-1.565895E-6	-1.565947E-6	-1.564797E-6	-1.563747E-6	  -19.9982	    9.5073	    1.9927	  -37.6631	
