GCD Test
Bias: 5000.000000
IV_34252_018_PSS_HM_XX_DIODE
Date/Time: 4/26/2021 4:39:47 PM
Sensor Name: DIODE
Type: P
Annealing Status: Unirradiated
Environment: RT
Tester: Andrew Kent

Time Delay per Ramp Step (s): 0.500

CV Time Delay per Measurement (s) :0.500

AC Voltage (V): 0.500

Current Number of measurements per voltage: 1.000

IV Time Delay per Measurement (s) :0.000


BiasVoltage	Bias Current_Avg	Bias Current_0	Temperature	Air_Temp	Humidity	Dewpoint	
   -5.0000	-4.190379E-9	-4.190379E-9	   23.0553	   23.3875	   17.2565	   -2.8297	
  -10.0000	-4.200001E-9	-4.200001E-9	   23.0553	   23.3875	   17.2565	   -2.8297	
  -15.0000	-4.217365E-9	-4.217365E-9	   23.0553	   23.3918	   17.2571	   -2.8257	
  -20.0000	-4.233789E-9	-4.233789E-9	   23.0527	   23.3961	   17.2698	   -2.8125	
  -25.0000	-4.249736E-9	-4.249736E-9	   23.0527	   23.3961	   17.2698	   -2.8125	
  -30.0000	-4.258342E-9	-4.258342E-9	   23.0553	   23.3961	   17.2631	   -2.8176	
  -35.0000	-4.268702E-9	-4.268702E-9	   23.0553	   23.3961	   17.2631	   -2.8176	
  -40.0000	-4.283201E-9	-4.283201E-9	   23.0527	   23.3955	   17.2710	   -2.8119	
  -45.0000	-4.293952E-9	-4.293952E-9	   23.0527	   23.3955	   17.2710	   -2.8119	
  -50.0000	-4.305078E-9	-4.305078E-9	   23.0553	   23.3941	   17.2761	   -2.8091	
  -55.0000	-4.309095E-9	-4.309095E-9	   23.0527	   23.3963	   17.2710	   -2.8113	
  -60.0000	-4.312142E-9	-4.312142E-9	   23.0527	   23.3963	   17.2710	   -2.8113	
  -65.0000	-4.314767E-9	-4.314767E-9	   23.0553	   23.3898	   17.2701	   -2.8173	
  -70.0000	-4.317401E-9	-4.317401E-9	   23.0553	   23.3898	   17.2701	   -2.8173	
  -75.0000	-4.319333E-9	-4.319333E-9	   23.0553	   23.3936	   17.2802	   -2.8063	
  -80.0000	-4.320831E-9	-4.320831E-9	   23.0527	   23.3874	   17.2783	   -2.8129	
  -85.0000	-4.323288E-9	-4.323288E-9	   23.0527	   23.3874	   17.2783	   -2.8129	
  -90.0000	-4.324153E-9	-4.324153E-9	   23.0527	   23.3929	   17.2780	   -2.8086	
  -95.0000	-4.324943E-9	-4.324943E-9	   23.0527	   23.3929	   17.2780	   -2.8086	
 -100.0000	-4.325764E-9	-4.325764E-9	   23.0527	   23.3951	   17.2846	   -2.8017	
 -105.0000	-4.327112E-9	-4.327112E-9	   23.0527	   23.3951	   17.2846	   -2.8017	
 -110.0000	-4.328392E-9	-4.328392E-9	   23.0553	   23.3940	   17.2922	   -2.7967	
 -115.0000	-4.329060E-9	-4.329060E-9	   23.0553	   23.3902	   17.2887	   -2.8024	
 -120.0000	-4.331086E-9	-4.331086E-9	   23.0553	   23.3902	   17.2887	   -2.8024	
 -125.0000	-4.332752E-9	-4.332752E-9	   23.0527	   23.3943	   17.2900	   -2.7981	
 -130.0000	-4.333291E-9	-4.333291E-9	   23.0527	   23.3943	   17.2900	   -2.7981	
 -135.0000	-4.334345E-9	-4.334345E-9	   23.0553	   23.3909	   17.2935	   -2.7982	
 -140.0000	-4.335537E-9	-4.335537E-9	   23.0553	   23.3909	   17.2935	   -2.7982	
 -145.0000	-4.337207E-9	-4.337207E-9	   23.0553	   23.3983	   17.2900	   -2.7949	
 -150.0000	-4.338610E-9	-4.338610E-9	   23.0527	   23.3927	   17.2868	   -2.8019	
 -155.0000	-4.339018E-9	-4.339018E-9	   23.0527	   23.3927	   17.2868	   -2.8019	
 -160.0000	-4.340500E-9	-4.340500E-9	   23.0553	   23.3927	   17.2900	   -2.7994	
 -165.0000	-4.342108E-9	-4.342108E-9	   23.0553	   23.3927	   17.2900	   -2.7994	
 -170.0000	-4.342895E-9	-4.342895E-9	   23.0553	   23.3929	   17.2837	   -2.8042	
 -175.0000	-4.344031E-9	-4.344031E-9	   23.0553	   23.3929	   17.2837	   -2.8042	
 -180.0000	-4.345611E-9	-4.345611E-9	   23.0553	   23.3922	   17.2764	   -2.8105	
 -185.0000	-4.346935E-9	-4.346935E-9	   23.0553	   23.3926	   17.2878	   -2.8012	
 -190.0000	-4.347305E-9	-4.347305E-9	   23.0553	   23.3926	   17.2878	   -2.8012	
 -195.0000	-4.348034E-9	-4.348034E-9	   23.0553	   23.3927	   17.2840	   -2.8041	
 -200.0000	-4.350269E-9	-4.350269E-9	   23.0553	   23.3927	   17.2840	   -2.8041	
 -205.0000	-4.350803E-9	-4.350803E-9	   23.0553	   23.3923	   17.2777	   -2.8094	
 -210.0000	-4.351428E-9	-4.351428E-9	   23.0553	   23.3923	   17.2777	   -2.8094	
 -215.0000	-4.352640E-9	-4.352640E-9	   23.0553	   23.3870	   17.2770	   -2.8142	
 -220.0000	-4.353747E-9	-4.353747E-9	   23.0553	   23.3869	   17.2710	   -2.8189	
 -225.0000	-4.354779E-9	-4.354779E-9	   23.0553	   23.3869	   17.2710	   -2.8189	
 -230.0000	-4.355983E-9	-4.355983E-9	   23.0553	   23.3858	   17.2786	   -2.8139	
 -235.0000	-4.357444E-9	-4.357444E-9	   23.0553	   23.3858	   17.2786	   -2.8139	
 -240.0000	-4.358612E-9	-4.358612E-9	   23.0553	   23.3883	   17.2770	   -2.8131	
 -245.0000	-4.360459E-9	-4.360459E-9	   23.0553	   23.3883	   17.2751	   -2.8131	
 -250.0000	-4.361296E-9	-4.361296E-9	   23.0553	   23.3870	   17.2751	   -2.8156	
 -255.0000	-4.363118E-9	-4.363118E-9	   23.0553	   23.3913	   17.2729	   -2.8138	
 -260.0000	-4.364960E-9	-4.364960E-9	   23.0553	   23.3913	   17.2729	   -2.8138	
 -265.0000	-4.365702E-9	-4.365702E-9	   23.0553	   23.3873	   17.2638	   -2.8243	
 -270.0000	-4.367417E-9	-4.367417E-9	   23.0553	   23.3873	   17.2638	   -2.8243	
 -275.0000	-4.368504E-9	-4.368504E-9	   23.0553	   23.3880	   17.2796	   -2.8113	
 -280.0000	-4.371173E-9	-4.371173E-9	   23.0553	   23.3872	   17.2834	   -2.8091	
 -285.0000	-4.371809E-9	-4.371809E-9	   23.0553	   23.3872	   17.2834	   -2.8091	
 -290.0000	-4.374578E-9	-4.374578E-9	   23.0553	   23.3870	   17.2868	   -2.8065	
 -295.0000	-4.375990E-9	-4.375990E-9	   23.0553	   23.3904	   17.2745	   -2.8134	
 -300.0000	-4.378181E-9	-4.378181E-9	   23.0553	   23.3904	   17.2745	   -2.8134	
 -305.0000	-4.379412E-9	-4.379412E-9	   23.0553	   23.3876	   17.2764	   -2.8142	
 -310.0000	-4.381714E-9	-4.381714E-9	   23.0553	   23.3876	   17.2764	   -2.8142	
 -315.0000	-4.382603E-9	-4.382603E-9	   23.0553	   23.3931	   17.2929	   -2.7969	
 -320.0000	-4.384182E-9	-4.384182E-9	   23.0553	   23.3931	   17.2929	   -2.7969	
 -325.0000	-4.385789E-9	-4.385789E-9	   23.0553	   23.3880	   17.2821	   -2.8094	
 -330.0000	-4.387307E-9	-4.387307E-9	   23.0553	   23.3871	   17.2872	   -2.8062	
 -335.0000	-4.385254E-9	-4.385254E-9	   23.0553	   23.3871	   17.2872	   -2.8062	
 -340.0000	-4.386412E-9	-4.386412E-9	   23.0553	   23.3899	   17.2862	   -2.8047	
 -345.0000	-4.386814E-9	-4.386814E-9	   23.0553	   23.3899	   17.2862	   -2.8047	
 -350.0000	-4.389149E-9	-4.389149E-9	   23.0553	   23.3828	   17.2840	   -2.8121	
 -355.0000	-4.389932E-9	-4.389932E-9	   23.0553	   23.3828	   17.2840	   -2.8121	
 -360.0000	-4.395756E-9	-4.395756E-9	   23.0553	   23.3857	   17.2878	   -2.8068	
 -365.0000	-4.396583E-9	-4.396583E-9	   23.0553	   23.3857	   17.2878	   -2.8068	
 -370.0000	-4.398086E-9	-4.398086E-9	   23.0553	   23.3861	   17.2887	   -2.8057	
 -375.0000	-4.399245E-9	-4.399245E-9	   23.0553	   23.3862	   17.2894	   -2.8052	
 -380.0000	-4.400382E-9	-4.400382E-9	   23.0553	   23.3862	   17.2894	   -2.8052	
 -385.0000	-4.402036E-9	-4.402036E-9	   23.0579	   23.3862	   17.2944	   -2.8012	
 -390.0000	-4.404320E-9	-4.404320E-9	   23.0579	   23.3862	   17.2944	   -2.8012	
 -395.0000	-4.404650E-9	-4.404650E-9	   23.0553	   23.3855	   17.2872	   -2.8075	
 -400.0000	-4.401470E-9	-4.401470E-9	   23.0553	   23.3819	   17.2704	   -2.8234	
 -410.0000	-4.406137E-9	-4.406137E-9	   23.0553	   23.3819	   17.2704	   -2.8234	
 -420.0000	-4.409749E-9	-4.409749E-9	   23.0553	   23.3819	   17.2761	   -2.8190	
 -430.0000	-4.409352E-9	-4.409352E-9	   23.0553	   23.3819	   17.2761	   -2.8190	
 -440.0000	-4.412484E-9	-4.412484E-9	   23.0579	   23.3845	   17.2742	   -2.8184	
 -450.0000	-4.416275E-9	-4.416275E-9	   23.0553	   23.3820	   17.2720	   -2.8222	
 -460.0000	-4.420066E-9	-4.420066E-9	   23.0553	   23.3820	   17.2720	   -2.8222	
 -470.0000	-4.420209E-9	-4.420209E-9	   23.0579	   23.3823	   17.2698	   -2.8236	
 -480.0000	-4.422700E-9	-4.422700E-9	   23.0579	   23.3823	   17.2698	   -2.8236	
 -490.0000	-4.426865E-9	-4.426865E-9	   23.0553	   23.3885	   17.2717	   -2.8171	
 -500.0000	-4.430269E-9	-4.430269E-9	   23.0553	   23.3835	   17.2653	   -2.8261	
 -510.0000	-4.436326E-9	-4.436326E-9	   23.0553	   23.3835	   17.2653	   -2.8261	
 -520.0000	-4.439979E-9	-4.439979E-9	   23.0579	   23.3830	   17.2577	   -2.8324	
 -530.0000	-4.438092E-9	-4.438092E-9	   23.0579	   23.3830	   17.2577	   -2.8324	
 -540.0000	-4.441992E-9	-4.441992E-9	   23.0579	   23.3849	   17.2891	   -2.8065	
 -550.0000	-4.445549E-9	-4.445549E-9	   23.0553	   23.3845	   17.2808	   -2.8132	
 -560.0000	-4.448273E-9	-4.448273E-9	   23.0553	   23.3845	   17.2808	   -2.8132	
 -570.0000	-4.457050E-9	-4.457050E-9	   23.0553	   23.3851	   17.2774	   -2.8155	
 -580.0000	-4.460971E-9	-4.460971E-9	   23.0553	   23.3851	   17.2774	   -2.8155	
 -590.0000	-4.464296E-9	-4.464296E-9	   23.0579	   23.3837	   17.2916	   -2.8055	
 -600.0000	-4.469329E-9	-4.469329E-9	   23.0553	   23.3825	   17.2849	   -2.8117	
 -610.0000	-4.474236E-9	-4.474236E-9	   23.0553	   23.3825	   17.2849	   -2.8117	
 -620.0000	-4.479837E-9	-4.479837E-9	   23.0579	   23.3825	   17.2878	   -2.8095	
 -630.0000	-4.485097E-9	-4.485097E-9	   23.0579	   23.3825	   17.2878	   -2.8095	
 -640.0000	-4.490730E-9	-4.490730E-9	   23.0579	   23.3879	   17.2789	   -2.8120	
 -650.0000	-4.493336E-9	-4.493336E-9	   23.0579	   23.3879	   17.2789	   -2.8120	
 -660.0000	-4.504571E-9	-4.504571E-9	   23.0553	   23.3853	   17.2808	   -2.8126	
 -670.0000	-4.512095E-9	-4.512095E-9	   23.0579	   23.3845	   17.2913	   -2.8051	
 -680.0000	-4.519226E-9	-4.519226E-9	   23.0579	   23.3845	   17.2913	   -2.8051	
 -690.0000	-4.528531E-9	-4.528531E-9	   23.0579	   23.3878	   17.2830	   -2.8088	
 -700.0000	-4.537493E-9	-4.537493E-9	   23.0579	   23.3878	   17.2830	   -2.8088	
 -710.0000	-4.546516E-9	-4.546516E-9	   23.0579	   23.3920	   17.2834	   -2.8052	
 -720.0000	-4.558750E-9	-4.558750E-9	   23.0579	   23.3920	   17.2834	   -2.8052	
 -730.0000	-4.570872E-9	-4.570872E-9	   23.0553	   23.3915	   17.2755	   -2.8118	
 -740.0000	-4.584289E-9	-4.584289E-9	   23.0579	   23.3874	   17.2710	   -2.8185	
 -750.0000	-4.599472E-9	-4.599472E-9	   23.0579	   23.3874	   17.2710	   -2.8185	
 -760.0000	-4.613466E-9	-4.613466E-9	   23.0579	   23.3888	   17.2710	   -2.8173	
 -770.0000	-4.630758E-9	-4.630758E-9	   23.0579	   23.3888	   17.2710	   -2.8173	
 -780.0000	-4.649481E-9	-4.649481E-9	   23.0579	   23.3882	   17.2682	   -2.8201	
 -790.0000	-4.671108E-9	-4.671108E-9	   23.0579	   23.3859	   17.2713	   -2.8195	
 -800.0000	-4.691838E-9	-4.691838E-9	   23.0579	   23.3859	   17.2713	   -2.8195	
 -810.0000	-4.716643E-9	-4.716643E-9	   23.0579	   23.3849	   17.2641	   -2.8259	
 -820.0000	-4.742581E-9	-4.742581E-9	   23.0579	   23.3849	   17.2641	   -2.8259	
 -830.0000	-4.770705E-9	-4.770705E-9	   23.0579	   23.3859	   17.2555	   -2.8318	
 -840.0000	-4.800404E-9	-4.800404E-9	   23.0579	   23.3859	   17.2555	   -2.8318	
 -850.0000	-4.835230E-9	-4.835230E-9	   23.0553	   23.3902	   17.2669	   -2.8194	
 -860.0000	-4.868622E-9	-4.868622E-9	   23.0553	   23.3902	   17.2669	   -2.8194	
 -870.0000	-4.907468E-9	-4.907468E-9	   23.0579	   23.3921	   17.2603	   -2.8230	
 -880.0000	-4.948205E-9	-4.948205E-9	   23.0579	   23.3921	   17.2603	   -2.8230	
 -890.0000	-4.995718E-9	-4.995718E-9	   23.0579	   23.3944	   17.2495	   -2.8296	
 -900.0000	-5.045134E-9	-5.045134E-9	   23.0579	   23.3944	   17.2495	   -2.8296	
 -910.0000	-5.098390E-9	-5.098390E-9	   23.0579	   23.3913	   17.2717	   -2.8149	
 -920.0000	-5.155717E-9	-5.155717E-9	   23.0579	   23.3913	   17.2717	   -2.8149	
 -930.0000	-5.217921E-9	-5.217921E-9	   23.0579	   23.3929	   17.2641	   -2.8194	
 -940.0000	-5.286039E-9	-5.286039E-9	   23.0579	   23.3929	   17.2641	   -2.8194	
 -950.0000	-5.358091E-9	-5.358091E-9	   23.0579	   23.3930	   17.2745	   -2.8112	
 -960.0000	-5.436717E-9	-5.436717E-9	   23.0579	   23.3943	   17.2698	   -2.8138	
 -970.0000	-5.521485E-9	-5.521485E-9	   23.0579	   23.3943	   17.2698	   -2.8138	
 -980.0000	-5.611828E-9	-5.611828E-9	   23.0579	   23.3949	   17.2650	   -2.8171	
 -990.0000	-5.712509E-9	-5.712509E-9	   23.0579	   23.3949	   17.2650	   -2.8171	
-1000.0000	-5.819292E-9	-5.819292E-9	   23.0579	   23.3945	   17.2669	   -2.8159	
