GCD Test
Bias: 5000.000000
IV_34340_007_PSS_HM_XX_DIODEHALFPSTOP_GRConnected
Date/Time: 4/23/2021 2:52:46 PM
Sensor Name: DIODEHALFPSTOP
Type: P
Annealing Status: Unirradiated
Environment: RT
Tester: Andrew Kent

Time Delay per Ramp Step (s): 0.500

CV Time Delay per Measurement (s) :0.500

AC Voltage (V): 0.500

Current Number of measurements per voltage: 1.000

IV Time Delay per Measurement (s) :0.000


BiasVoltage	Total Current_Avg	Total Current_0	Bias Current_Avg	Bias Current_0	Temperature	Air_Temp	Humidity	Dewpoint	
   -5.0000	2.4000E-11	2.4000E-11	-9.010163E-12	-9.010163E-12	   23.0192	   23.3225	   16.2764	   -3.6647	
  -10.0000	4.3600E-10	4.3600E-10	-1.017600E-11	-1.017600E-11	   23.0192	   23.3224	   16.2818	   -3.6604	
  -15.0000	2.3600E-10	2.3600E-10	-9.499681E-12	-9.499681E-12	   23.0192	   23.3206	   16.2732	   -3.6688	
  -20.0000	2.0200E-10	2.0200E-10	-9.967808E-12	-9.967808E-12	   23.0218	   23.3206	   16.2631	   -3.6688	
  -25.0000	3.0900E-10	3.0900E-10	-1.049155E-11	-1.049155E-11	   23.0218	   23.3206	   16.2631	   -3.6771	
  -30.0000	-3.1800E-10	-3.1800E-10	-1.054492E-11	-1.054492E-11	   23.0192	   23.3218	   16.2748	   -3.6666	
  -35.0000	1.3700E-10	1.3700E-10	-1.139459E-11	-1.139459E-11	   23.0192	   23.3218	   16.2780	   -3.6666	
  -40.0000	8.0000E-11	8.0000E-11	-1.117255E-11	-1.117255E-11	   23.0192	   23.3222	   16.2780	   -3.6636	
  -45.0000	-1.2300E-10	-1.2300E-10	-1.178755E-11	-1.178755E-11	   23.0218	   23.3214	   16.2777	   -3.6646	
  -50.0000	1.1000E-11	1.1000E-11	-1.160889E-11	-1.160889E-11	   23.0192	   23.3188	   16.2767	   -3.6674	
  -55.0000	-3.9700E-10	-3.9700E-10	-1.175373E-11	-1.175373E-11	   23.0192	   23.3201	   16.2793	   -3.6643	
  -60.0000	-4.0300E-10	-4.0300E-10	-1.230803E-11	-1.230803E-11	   23.0192	   23.3201	   16.2739	   -3.6643	
  -65.0000	-3.2200E-10	-3.2200E-10	-1.249565E-11	-1.249565E-11	   23.0192	   23.3189	   16.2739	   -3.6697	
  -70.0000	-4.4500E-10	-4.4500E-10	-1.351583E-11	-1.351583E-11	   23.0192	   23.3188	   16.2853	   -3.6605	
  -75.0000	-3.4400E-10	-3.4400E-10	-1.309027E-11	-1.309027E-11	   23.0166	   23.3179	   16.2818	   -3.6640	
  -80.0000	-8.9000E-11	-8.9000E-11	-1.319601E-11	-1.319601E-11	   23.0192	   23.3179	   16.2843	   -3.6640	
  -85.0000	-1.7800E-10	-1.7800E-10	-1.350666E-11	-1.350666E-11	   23.0192	   23.3145	   16.2843	   -3.6647	
  -90.0000	-4.7500E-10	-4.7500E-10	-1.412656E-11	-1.412656E-11	   23.0192	   23.3209	   16.2853	   -3.6588	
  -95.0000	-1.0000E-12	-1.0000E-12	-1.438262E-11	-1.438262E-11	   23.0192	   23.3209	   16.2818	   -3.6588	
 -100.0000	-6.3000E-11	-6.3000E-11	-1.502227E-11	-1.502227E-11	   23.0192	   23.3209	   16.2818	   -3.6616	
 -105.0000	-2.4400E-10	-2.4400E-10	-1.410292E-11	-1.410292E-11	   23.0192	   23.3192	   16.2881	   -3.6578	
 -110.0000	-2.0200E-10	-2.0200E-10	-1.442723E-11	-1.442723E-11	   23.0192	   23.3218	   16.2856	   -3.6577	
 -115.0000	-7.0200E-10	-7.0200E-10	-1.484790E-11	-1.484790E-11	   23.0192	   23.3218	   16.2849	   -3.6577	
 -120.0000	-2.7100E-10	-2.7100E-10	-1.539628E-11	-1.539628E-11	   23.0192	   23.3190	   16.2849	   -3.6605	
 -125.0000	-2.1000E-10	-2.1000E-10	-1.483404E-11	-1.483404E-11	   23.0192	   23.3141	   16.2859	   -3.6637	
 -130.0000	-9.4000E-11	-9.4000E-11	-1.499477E-11	-1.499477E-11	   23.0192	   23.3141	   16.2935	   -3.6637	
 -135.0000	-5.5600E-10	-5.5600E-10	-1.528180E-11	-1.528180E-11	   23.0192	   23.3168	   16.2935	   -3.6553	
 -140.0000	-7.9300E-10	-7.9300E-10	-1.505018E-11	-1.505018E-11	   23.0192	   23.3197	   16.2973	   -3.6499	
 -145.0000	-5.3300E-10	-5.3300E-10	-1.541319E-11	-1.541319E-11	   23.0166	   23.3197	   16.2957	   -3.6499	
 -150.0000	-1.3100E-10	-1.3100E-10	-1.564317E-11	-1.564317E-11	   23.0166	   23.3173	   16.2957	   -3.6531	
 -155.0000	-6.3700E-10	-6.3700E-10	-1.571773E-11	-1.571773E-11	   23.0166	   23.3148	   16.2916	   -3.6585	
 -160.0000	-4.9800E-10	-4.9800E-10	-1.594771E-11	-1.594771E-11	   23.0166	   23.3182	   16.2925	   -3.6550	
 -165.0000	-8.5800E-10	-8.5800E-10	-1.575684E-11	-1.575684E-11	   23.0166	   23.3118	   16.2868	   -3.6648	
 -170.0000	-7.8200E-10	-7.8200E-10	-1.570429E-11	-1.570429E-11	   23.0166	   23.3118	   16.2868	   -3.6648	
 -175.0000	-7.9300E-10	-7.9300E-10	-1.572404E-11	-1.572404E-11	   23.0192	   23.3171	   16.2894	   -3.6585	
 -180.0000	-4.9000E-10	-4.9000E-10	-1.613472E-11	-1.613472E-11	   23.0192	   23.3171	   16.2941	   -3.6585	
 -185.0000	-5.2900E-10	-5.2900E-10	-1.651342E-11	-1.651342E-11	   23.0192	   23.3156	   16.2941	   -3.6557	
 -190.0000	-8.2500E-10	-8.2500E-10	-1.628078E-11	-1.628078E-11	   23.0166	   23.3152	   16.3065	   -3.6460	
 -195.0000	-3.4500E-10	-3.4500E-10	-1.700518E-11	-1.700518E-11	   23.0192	   23.3152	   16.3049	   -3.6460	
 -200.0000	-6.3800E-10	-6.3800E-10	-1.654316E-11	-1.654316E-11	   23.0192	   23.3169	   16.3049	   -3.6459	
 -205.0000	-5.5100E-10	-5.5100E-10	-1.668372E-11	-1.668372E-11	   23.0166	   23.3169	   16.2900	   -3.6459	
 -210.0000	-8.1900E-10	-8.1900E-10	-1.720562E-11	-1.720562E-11	   23.0166	   23.3132	   16.2900	   -3.6610	
 -215.0000	-4.7100E-10	-4.7100E-10	-1.780514E-11	-1.780514E-11	   23.0166	   23.3144	   16.3055	   -3.6474	
 -220.0000	-4.2200E-10	-4.2200E-10	-1.820482E-11	-1.820482E-11	   23.0166	   23.3144	   16.3102	   -3.6474	
 -225.0000	-8.4100E-10	-8.4100E-10	-1.860674E-11	-1.860674E-11	   23.0166	   23.3144	   16.3102	   -3.6435	
 -230.0000	-7.7200E-10	-7.7200E-10	-1.976259E-11	-1.976259E-11	   23.0192	   23.3144	   16.2992	   -3.6435	
 -235.0000	-4.5100E-10	-4.5100E-10	-1.878254E-11	-1.878254E-11	   23.0192	   23.3147	   16.2992	   -3.6524	
 -240.0000	-4.2500E-10	-4.2500E-10	-1.895731E-11	-1.895731E-11	   23.0192	   23.3192	   16.3074	   -3.6420	
 -245.0000	-4.4000E-10	-4.4000E-10	-1.903391E-11	-1.903391E-11	   23.0192	   23.3192	   16.2998	   -3.6420	
 -250.0000	-4.9100E-10	-4.9100E-10	-1.953646E-11	-1.953646E-11	   23.0192	   23.3175	   16.2998	   -3.6496	
 -255.0000	-8.8700E-10	-8.8700E-10	-2.035518E-11	-2.035518E-11	   23.0192	   23.3162	   16.3014	   -3.6493	
 -260.0000	-4.6400E-10	-4.6400E-10	-1.920727E-11	-1.920727E-11	   23.0166	   23.3162	   16.3083	   -3.6493	
 -265.0000	-5.9500E-10	-5.9500E-10	-2.080314E-11	-2.080314E-11	   23.0166	   23.3147	   16.3083	   -3.6449	
 -270.0000	-4.4700E-10	-4.4700E-10	-2.051184E-11	-2.051184E-11	   23.0192	   23.3149	   16.3055	   -3.6470	
 -275.0000	-1.0410E-9	-1.0410E-9	-2.035742E-11	-2.035742E-11	   23.0192	   23.3158	   16.3156	   -3.6380	
 -280.0000	-7.6000E-10	-7.6000E-10	-2.010910E-11	-2.010910E-11	   23.0192	   23.3155	   16.3077	   -3.6447	
 -285.0000	-9.7100E-10	-9.7100E-10	-2.032789E-11	-2.032789E-11	   23.0192	   23.3163	   16.3128	   -3.6399	
 -290.0000	-1.1100E-9	-1.1100E-9	-2.023276E-11	-2.023276E-11	   23.0192	   23.3163	   16.3128	   -3.6399	
 -295.0000	-5.2100E-10	-5.2100E-10	-2.066747E-11	-2.066747E-11	   23.0192	   23.3135	   16.3061	   -3.6476	
 -300.0000	-9.6000E-10	-9.6000E-10	-2.118591E-11	-2.118591E-11	   23.0166	   23.3135	   16.3178	   -3.6476	
 -305.0000	-8.2800E-10	-8.2800E-10	-2.058761E-11	-2.058761E-11	   23.0166	   23.3102	   16.3178	   -3.6407	
 -310.0000	-7.8900E-10	-7.8900E-10	-2.018325E-11	-2.018325E-11	   23.0192	   23.3102	   16.3163	   -3.6407	
 -315.0000	-1.1690E-9	-1.1690E-9	-2.022643E-11	-2.022643E-11	   23.0192	   23.3166	   16.3163	   -3.6368	
 -320.0000	-7.4000E-10	-7.4000E-10	-2.024700E-11	-2.024700E-11	   23.0192	   23.3169	   16.3194	   -3.6340	
 -325.0000	-1.1350E-9	-1.1350E-9	-2.026962E-11	-2.026962E-11	   23.0192	   23.3169	   16.3207	   -3.6340	
 -330.0000	-1.0350E-9	-1.0350E-9	-2.079926E-11	-2.079926E-11	   23.0192	   23.3169	   16.3207	   -3.6330	
 -335.0000	-5.7400E-10	-5.7400E-10	-2.057478E-11	-2.057478E-11	   23.0192	   23.3169	   16.3163	   -3.6330	
 -340.0000	-5.9300E-10	-5.9300E-10	-2.053811E-11	-2.053811E-11	   23.0192	   23.3143	   16.3163	   -3.6387	
 -345.0000	-6.2800E-10	-6.2800E-10	-2.096162E-11	-2.096162E-11	   23.0192	   23.3154	   16.3065	   -3.6458	
 -350.0000	-7.2800E-10	-7.2800E-10	-2.117756E-11	-2.117756E-11	   23.0166	   23.3170	   16.3080	   -3.6432	
 -355.0000	-7.0800E-10	-7.0800E-10	-2.074345E-11	-2.074345E-11	   23.0192	   23.3170	   16.3166	   -3.6432	
 -360.0000	-1.0390E-9	-1.0390E-9	-2.058435E-11	-2.058435E-11	   23.0192	   23.3187	   16.3166	   -3.6349	
 -365.0000	-7.3400E-10	-7.3400E-10	-2.111054E-11	-2.111054E-11	   23.0192	   23.3187	   16.3137	   -3.6349	
 -370.0000	-1.2420E-9	-1.2420E-9	-2.073836E-11	-2.073836E-11	   23.0192	   23.3151	   16.3137	   -3.6401	
 -375.0000	-6.5100E-10	-6.5100E-10	-2.053933E-11	-2.053933E-11	   23.0192	   23.3165	   16.3201	   -3.6338	
 -380.0000	-1.2820E-9	-1.2820E-9	-2.086466E-11	-2.086466E-11	   23.0192	   23.3165	   16.3125	   -3.6338	
 -385.0000	-7.2800E-10	-7.2800E-10	-2.102294E-11	-2.102294E-11	   23.0192	   23.3178	   16.3125	   -3.6389	
 -390.0000	-1.2770E-9	-1.2770E-9	-2.085325E-11	-2.085325E-11	   23.0192	   23.3188	   16.3191	   -3.6327	
 -395.0000	-1.1780E-9	-1.1780E-9	-2.149554E-11	-2.149554E-11	   23.0166	   23.3184	   16.3248	   -3.6284	
 -400.0000	-1.3160E-9	-1.3160E-9	-2.192455E-11	-2.192455E-11	   23.0192	   23.3137	   16.3163	   -3.6392	
 -410.0000	-1.4400E-9	-1.4400E-9	-2.150471E-11	-2.150471E-11	   23.0192	   23.3137	   16.3163	   -3.6392	
 -420.0000	-1.0780E-9	-1.0780E-9	-2.160086E-11	-2.160086E-11	   23.0192	   23.3228	   16.3185	   -3.6300	
 -430.0000	-9.6100E-10	-9.6100E-10	-2.118712E-11	-2.118712E-11	   23.0192	   23.3228	   16.3182	   -3.6300	
 -440.0000	-1.2220E-9	-1.2220E-9	-2.150552E-11	-2.150552E-11	   23.0192	   23.3229	   16.3182	   -3.6303	
 -450.0000	-1.2320E-9	-1.2320E-9	-2.173917E-11	-2.173917E-11	   23.0166	   23.3177	   16.3311	   -3.6238	
 -460.0000	-1.0230E-9	-1.0230E-9	-2.170555E-11	-2.170555E-11	   23.0192	   23.3177	   16.3286	   -3.6238	
 -470.0000	-1.6690E-9	-1.6690E-9	-2.184266E-11	-2.184266E-11	   23.0192	   23.3177	   16.3286	   -3.6259	
 -480.0000	-1.3640E-9	-1.3640E-9	-2.150021E-11	-2.150021E-11	   23.0192	   23.3200	   16.3163	   -3.6341	
 -490.0000	-1.6680E-9	-1.6680E-9	-2.163955E-11	-2.163955E-11	   23.0192	   23.3200	   16.3201	   -3.6341	
 -500.0000	-1.6080E-9	-1.6080E-9	-2.161878E-11	-2.161878E-11	   23.0192	   23.3195	   16.3201	   -3.6314	
 -510.0000	-1.7050E-9	-1.7050E-9	-2.292823E-11	-2.292823E-11	   23.0192	   23.3195	   16.3251	   -3.6314	
 -520.0000	-1.1350E-9	-1.1350E-9	-2.208365E-11	-2.208365E-11	   23.0192	   23.3206	   16.3251	   -3.6264	
 -530.0000	-1.8200E-9	-1.8200E-9	-2.223501E-11	-2.223501E-11	   23.0192	   23.3198	   16.3261	   -3.6263	
 -540.0000	-1.7800E-9	-1.7800E-9	-2.234399E-11	-2.234399E-11	   23.0192	   23.3169	   16.3194	   -3.6340	
 -550.0000	-1.2060E-9	-1.2060E-9	-2.333667E-11	-2.333667E-11	   23.0192	   23.3169	   16.3257	   -3.6340	
 -560.0000	-1.3500E-9	-1.3500E-9	-2.219936E-11	-2.219936E-11	   23.0192	   23.3194	   16.3257	   -3.6268	
 -570.0000	-1.6390E-9	-1.6390E-9	-2.296755E-11	-2.296755E-11	   23.0192	   23.3223	   16.3280	   -3.6227	
 -580.0000	-1.2950E-9	-1.2950E-9	-2.244504E-11	-2.244504E-11	   23.0192	   23.3223	   16.3207	   -3.6227	
 -590.0000	-1.3070E-9	-1.3070E-9	-2.271902E-11	-2.271902E-11	   23.0192	   23.3209	   16.3207	   -3.6298	
 -600.0000	-1.8500E-9	-1.8500E-9	-2.312012E-11	-2.312012E-11	   23.0192	   23.3203	   16.3257	   -3.6261	
 -610.0000	-1.3700E-9	-1.3700E-9	-2.274957E-11	-2.274957E-11	   23.0192	   23.3203	   16.3254	   -3.6261	
 -620.0000	-1.7470E-9	-1.7470E-9	-2.219385E-11	-2.219385E-11	   23.0192	   23.3213	   16.3254	   -3.6255	
 -630.0000	-1.4300E-9	-1.4300E-9	-2.259434E-11	-2.259434E-11	   23.0218	   23.3195	   16.3333	   -3.6206	
 -640.0000	-1.6230E-9	-1.6230E-9	-2.306776E-11	-2.306776E-11	   23.0218	   23.3195	   16.3333	   -3.6206	
 -650.0000	-1.6860E-9	-1.6860E-9	-2.281638E-11	-2.281638E-11	   23.0192	   23.3181	   16.3299	   -3.6245	
 -660.0000	-1.5360E-9	-1.5360E-9	-2.334175E-11	-2.334175E-11	   23.0192	   23.3181	   16.3318	   -3.6245	
 -670.0000	-1.9220E-9	-1.9220E-9	-2.332484E-11	-2.332484E-11	   23.0192	   23.3143	   16.3318	   -3.6260	
 -680.0000	-1.7850E-9	-1.7850E-9	-2.263203E-11	-2.263203E-11	   23.0192	   23.3180	   16.3251	   -3.6285	
 -690.0000	-1.7680E-9	-1.7680E-9	-2.307653E-11	-2.307653E-11	   23.0192	   23.3180	   16.3251	   -3.6285	
 -700.0000	-1.8140E-9	-1.8140E-9	-2.325070E-11	-2.325070E-11	   23.0192	   23.3180	   16.3349	   -3.6205	
 -710.0000	-1.8550E-9	-1.8550E-9	-2.310321E-11	-2.310321E-11	   23.0192	   23.3180	   16.3381	   -3.6205	
 -720.0000	-1.9660E-9	-1.9660E-9	-2.350025E-11	-2.350025E-11	   23.0192	   23.3197	   16.3381	   -3.6165	
 -730.0000	-2.2940E-9	-2.2940E-9	-2.295227E-11	-2.295227E-11	   23.0192	   23.3235	   16.3321	   -3.6183	
 -740.0000	-1.6960E-9	-1.6960E-9	-2.418146E-11	-2.418146E-11	   23.0192	   23.3235	   16.3346	   -3.6183	
 -750.0000	-1.9480E-9	-1.9480E-9	-2.270415E-11	-2.270415E-11	   23.0192	   23.3235	   16.3346	   -3.6163	
 -760.0000	-2.0590E-9	-2.0590E-9	-2.433708E-11	-2.433708E-11	   23.0192	   23.3235	   16.3314	   -3.6163	
 -770.0000	-1.9300E-9	-1.9300E-9	-2.443181E-11	-2.443181E-11	   23.0192	   23.3210	   16.3314	   -3.6209	
 -780.0000	-1.7550E-9	-1.7550E-9	-2.340124E-11	-2.340124E-11	   23.0192	   23.3226	   16.3381	   -3.6142	
 -790.0000	-1.8430E-9	-1.8430E-9	-2.431691E-11	-2.431691E-11	   23.0192	   23.3199	   16.3302	   -3.6228	
 -800.0000	-2.1160E-9	-2.1160E-9	-2.372290E-11	-2.372290E-11	   23.0192	   23.3199	   16.3362	   -3.6228	
 -810.0000	-1.8020E-9	-1.8020E-9	-2.365608E-11	-2.365608E-11	   23.0192	   23.3200	   16.3362	   -3.6178	
 -820.0000	-1.9050E-9	-1.9050E-9	-2.313458E-11	-2.313458E-11	   23.0192	   23.3209	   16.3378	   -3.6158	
 -830.0000	-1.9030E-9	-1.9030E-9	-2.348067E-11	-2.348067E-11	   23.0192	   23.3209	   16.3299	   -3.6158	
 -840.0000	-1.9340E-9	-1.9340E-9	-2.444015E-11	-2.444015E-11	   23.0192	   23.3211	   16.3299	   -3.6221	
 -850.0000	-2.0950E-9	-2.0950E-9	-2.409730E-11	-2.409730E-11	   23.0192	   23.3167	   16.3365	   -3.6203	
 -860.0000	-1.9130E-9	-1.9130E-9	-2.392354E-11	-2.392354E-11	   23.0192	   23.3167	   16.3431	   -3.6203	
 -870.0000	-2.5550E-9	-2.5550E-9	-2.317938E-11	-2.317938E-11	   23.0192	   23.3204	   16.3431	   -3.6118	
 -880.0000	-2.1960E-9	-2.1960E-9	-2.374856E-11	-2.374856E-11	   23.0192	   23.3192	   16.3264	   -3.6265	
 -890.0000	-2.5550E-9	-2.5550E-9	-2.319813E-11	-2.319813E-11	   23.0192	   23.3211	   16.3482	   -3.6072	
 -900.0000	-2.0820E-9	-2.0820E-9	-2.322869E-11	-2.322869E-11	   23.0192	   23.3211	   16.3403	   -3.6072	
 -910.0000	-2.3210E-9	-2.3210E-9	-2.397142E-11	-2.397142E-11	   23.0192	   23.3211	   16.3403	   -3.6136	
 -920.0000	-2.1650E-9	-2.1650E-9	-2.357867E-11	-2.357867E-11	   23.0192	   23.3227	   16.3403	   -3.6123	
 -930.0000	-2.1990E-9	-2.1990E-9	-2.388179E-11	-2.388179E-11	   23.0192	   23.3198	   16.3447	   -3.6110	
 -940.0000	-2.1870E-9	-2.1870E-9	-2.392314E-11	-2.392314E-11	   23.0192	   23.3192	   16.3374	   -3.6174	
 -950.0000	-2.2540E-9	-2.2540E-9	-2.378135E-11	-2.378135E-11	   23.0192	   23.3192	   16.3539	   -3.6174	
 -960.0000	-2.5180E-9	-2.5180E-9	-2.418857E-11	-2.418857E-11	   23.0192	   23.3247	   16.3539	   -3.5996	
 -970.0000	-2.4880E-9	-2.4880E-9	-2.421159E-11	-2.421159E-11	   23.0192	   23.3247	   16.3450	   -3.5996	
 -980.0000	-2.4640E-9	-2.4640E-9	-2.425112E-11	-2.425112E-11	   23.0192	   23.3194	   16.3450	   -3.6111	
 -990.0000	-2.9350E-9	-2.9350E-9	-2.405963E-11	-2.405963E-11	   23.0192	   23.3164	   16.3365	   -3.6205	
-1000.0000	-2.4430E-9	-2.4430E-9	-2.497062E-11	-2.497062E-11	   23.0192	   23.3164	   16.3362	   -3.6205	
