GCD Test
Bias: 5000.000000
CV_34254_025_PSS_HM_XX_DIODEQUARTER
Date/Time: 4/13/2021 6:06:01 PM
Sensor Name: DIODEQUARTER
Type: P
Annealing Status: Not Irradiated
Environment: RT
Tester: Andrew Kent

Time Delay per Ramp Step (s): 0.500

CV Time Delay per Measurement (s) :0.500

AC Voltage (V): 0.500

Current Number of measurements per voltage: 4.000

IV Time Delay per Measurement (s) :0.000


BiasVoltage	Total Current_Avg	Total Current_0	Total Current_1	Total Current_2	Total Current_3	Bias Current_Avg	Bias Current_0	Bias Current_1	Bias Current_2	Bias Current_3	Temperature	Air_Temp	Humidity	Dewpoint	
   -5.0000	3.8025E-10	1.6700E-10	3.9800E-10	5.7500E-10	3.8100E-10	-6.699347E-11	-6.648398E-11	-6.714401E-11	-6.759238E-11	-6.675351E-11	   23.0785	 -246.8610	   28.9696	 -246.8610	
  -10.0000	1.2750E-10	-5.7000E-11	2.1000E-11	1.2000E-10	4.2600E-10	-6.960079E-11	-6.946833E-11	-6.975678E-11	-6.947607E-11	-6.970198E-11	   23.0785	 -246.8610	   28.9741	 -246.8610	
  -15.0000	2.6050E-10	3.8600E-10	4.1000E-10	2.7600E-10	-3.0000E-11	-7.033327E-11	-7.054287E-11	-7.121390E-11	-6.978777E-11	-6.978855E-11	   23.0785	 -246.8610	   28.9671	 -246.8610	
  -20.0000	1.9000E-11	5.3000E-11	-1.9700E-10	1.2000E-11	2.0800E-10	-7.123111E-11	-7.126522E-11	-7.168426E-11	-7.115340E-11	-7.082156E-11	   23.0785	 -246.8610	   28.9633	 -246.8610	
  -25.0000	2.4000E-11	-2.0900E-10	-1.0500E-10	1.2000E-11	3.9800E-10	-7.409535E-11	-7.394500E-11	-7.389775E-11	-7.433797E-11	-7.420067E-11	   23.0785	 -246.8610	   28.9662	 -246.8610	
  -30.0000	7.9000E-11	3.7700E-10	1.7600E-10	3.9000E-11	-2.7600E-10	-7.615565E-11	-7.666288E-11	-7.577695E-11	-7.659812E-11	-7.558466E-11	   23.0810	 -246.8610	   28.9513	 -246.8610	
  -35.0000	-7.0250E-11	-1.4300E-10	-2.6500E-10	-7.4000E-11	2.0100E-10	-7.827363E-11	-7.812880E-11	-7.826243E-11	-7.815566E-11	-7.854765E-11	   23.0810	 -246.8610	   28.9747	 -246.8610	
  -40.0000	-7.2250E-11	1.3100E-10	5.8000E-11	-3.0100E-10	-1.7700E-10	-7.947339E-11	-8.013983E-11	-7.941789E-11	-7.909744E-11	-7.923842E-11	   23.0810	 -246.8610	   28.9677	 -246.8610	
  -45.0000	-1.7450E-10	-1.9000E-11	-3.4900E-10	-2.0200E-10	-1.2800E-10	-8.299774E-11	-8.298501E-11	-8.304735E-11	-8.297296E-11	-8.298563E-11	   23.0785	 -246.8610	   28.9677	 -246.8610	
  -50.0000	6.3500E-11	-6.4000E-11	2.3500E-10	6.4000E-11	1.9000E-11	-8.784596E-11	-8.743156E-11	-8.866189E-11	-8.763541E-11	-8.765497E-11	   23.0810	 -246.8610	   28.9614	 -246.8610	
  -55.0000	3.4750E-11	-4.2000E-11	2.0800E-10	2.2000E-11	-4.9000E-11	-9.133510E-11	-9.142362E-11	-9.129364E-11	-9.144398E-11	-9.117917E-11	   23.0810	 -246.8610	   28.9652	 -246.8610	
  -60.0000	-2.3475E-10	-5.2000E-11	-2.8200E-10	-3.9300E-10	-2.1200E-10	-9.518439E-11	-9.522220E-11	-9.523540E-11	-9.504882E-11	-9.523112E-11	   23.0810	 -246.8610	   28.9548	 -246.8610	
  -65.0000	-2.8800E-10	-3.7700E-10	-4.0600E-10	-2.5300E-10	-1.1600E-10	-9.746871E-11	-9.771822E-11	-9.758191E-11	-9.733990E-11	-9.723482E-11	   23.0810	 -246.8610	   28.9677	 -246.8610	
  -70.0000	-9.1250E-11	-2.9300E-10	-1.8100E-10	1.2700E-10	-1.8000E-11	-9.929627E-11	-9.925621E-11	-9.926820E-11	-9.942526E-11	-9.923541E-11	   23.0810	 -246.8610	   28.9459	 -246.8610	
  -75.0000	-2.6200E-10	-8.2000E-11	-1.2300E-10	-4.4400E-10	-3.9900E-10	-1.011296E-10	-1.012118E-10	-1.010651E-10	-1.012951E-10	-1.009465E-10	   23.0810	 -246.8610	   28.9541	 -246.8610	
  -80.0000	-9.4750E-11	-3.1500E-10	5.1000E-11	-9.0000E-12	-1.0600E-10	-1.016955E-10	-1.015228E-10	-1.017956E-10	-1.017173E-10	-1.017465E-10	   23.0810	 -246.8610	   28.9570	 -246.8610	
  -85.0000	-3.6500E-10	-2.6700E-10	-5.6300E-10	-3.5200E-10	-2.7800E-10	-1.022778E-10	-1.020682E-10	-1.019930E-10	-1.021470E-10	-1.029031E-10	   23.0810	 -246.8610	   28.9595	 -246.8610	
  -90.0000	-1.3700E-10	-3.7200E-10	-6.7000E-11	2.5000E-11	-1.3400E-10	-1.029811E-10	-1.036163E-10	-1.029677E-10	-1.026245E-10	-1.027157E-10	   23.0810	 -246.8610	   28.9592	 -246.8610	
  -95.0000	-1.9750E-10	-4.1600E-10	-3.3400E-10	4.0000E-11	-8.0000E-11	-1.037248E-10	-1.031005E-10	-1.041006E-10	-1.030142E-10	-1.046838E-10	   23.0810	 -246.8610	   28.9554	 -246.8610	
 -100.0000	-3.8825E-10	-5.6000E-10	-5.3200E-10	-3.8300E-10	-7.8000E-11	-1.034444E-10	-1.035845E-10	-1.035878E-10	-1.032119E-10	-1.033935E-10	   23.0810	 -246.8610	   28.9564	 -246.8610	
 -105.0000	-1.8950E-10	-2.6000E-10	2.1000E-11	-1.8300E-10	-3.3600E-10	-1.037637E-10	-1.038805E-10	-1.035454E-10	-1.035360E-10	-1.040929E-10	   23.0810	 -246.8610	   28.9538	 -246.8610	
 -110.0000	-3.5325E-10	-6.7300E-10	-4.5700E-10	-3.0600E-10	2.3000E-11	-1.035498E-10	-1.037611E-10	-1.034955E-10	-1.038102E-10	-1.031325E-10	   23.0810	 -246.8610	   28.9519	 -246.8610	
 -115.0000	-1.9525E-10	-3.8000E-10	-5.7000E-11	-7.8000E-11	-2.6600E-10	-1.040415E-10	-1.040887E-10	-1.042700E-10	-1.039810E-10	-1.038263E-10	   23.0810	 -246.8610	   28.9402	 -246.8610	
 -120.0000	-4.5400E-10	-5.4500E-10	-6.4500E-10	-4.1800E-10	-2.0800E-10	-1.042639E-10	-1.039506E-10	-1.047025E-10	-1.044976E-10	-1.039048E-10	   23.0810	 -246.8610	   28.9605	 -246.8610	
 -125.0000	-4.6675E-10	-2.9300E-10	-4.4800E-10	-6.7000E-10	-4.5600E-10	-1.046936E-10	-1.046257E-10	-1.051146E-10	-1.044177E-10	-1.046165E-10	   23.0810	 -246.8610	   28.9488	 -246.8610	
 -130.0000	-4.8200E-10	-6.3800E-10	-6.1200E-10	-4.2600E-10	-2.5200E-10	-1.048335E-10	-1.048522E-10	-1.050816E-10	-1.048526E-10	-1.045477E-10	   23.0810	 -246.8610	   28.9469	 -246.8610	
 -135.0000	-4.5100E-10	-2.3500E-10	-3.5200E-10	-5.6400E-10	-6.5300E-10	-1.048515E-10	-1.050057E-10	-1.048603E-10	-1.045584E-10	-1.049817E-10	   23.0810	 -246.8610	   28.9598	 -246.8610	
 -140.0000	-5.3825E-10	-4.0700E-10	-6.3600E-10	-6.5200E-10	-4.5800E-10	-1.052455E-10	-1.055537E-10	-1.053596E-10	-1.048593E-10	-1.052095E-10	   23.0810	 -246.8610	   28.9450	 -246.8610	
 -145.0000	-5.4575E-10	-5.6900E-10	-7.4200E-10	-5.0300E-10	-3.6900E-10	-1.050739E-10	-1.050883E-10	-1.049112E-10	-1.052427E-10	-1.050534E-10	   23.0810	 -246.8610	   28.9485	 -246.8610	
 -150.0000	-4.9975E-10	-7.5200E-10	-6.1800E-10	-4.6200E-10	-1.6700E-10	-1.053817E-10	-1.054535E-10	-1.054629E-10	-1.052427E-10	-1.053676E-10	   23.0810	 -246.8610	   28.9466	 -246.8610	
 -155.0000	-3.1225E-10	-3.5100E-10	-1.1000E-10	-3.3500E-10	-4.5300E-10	-1.055491E-10	-1.052686E-10	-1.057009E-10	-1.056772E-10	-1.055497E-10	   23.0810	 -246.8610	   28.9545	 -246.8610	
 -160.0000	-3.1625E-10	-3.9700E-10	-1.0600E-10	-3.3400E-10	-4.2800E-10	-1.055880E-10	-1.053657E-10	-1.055694E-10	-1.056148E-10	-1.058019E-10	   23.0810	 -246.8610	   28.9481	 -246.8610	
 -165.0000	-5.9050E-10	-5.8300E-10	-8.0100E-10	-5.5700E-10	-4.2100E-10	-1.057832E-10	-1.058939E-10	-1.055568E-10	-1.060852E-10	-1.055967E-10	   23.0810	 -246.8610	   28.9485	 -246.8610	
 -170.0000	-6.1075E-10	-4.8200E-10	-7.6200E-10	-6.7700E-10	-5.2200E-10	-1.054761E-10	-1.052111E-10	-1.056466E-10	-1.056755E-10	-1.053712E-10	   23.0810	 -246.8610	   28.9440	 -246.8610	
 -175.0000	-4.7000E-10	-1.9800E-10	-4.0600E-10	-4.9700E-10	-7.7900E-10	-1.058816E-10	-1.058340E-10	-1.062253E-10	-1.055431E-10	-1.059240E-10	   23.0810	 -246.8610	   28.9532	 -246.8610	
 -180.0000	-3.7050E-10	-4.2100E-10	-1.7600E-10	-3.9400E-10	-4.9100E-10	-1.062199E-10	-1.062447E-10	-1.062757E-10	-1.063926E-10	-1.059665E-10	   23.0836	 -246.8610	   28.9424	 -246.8610	
 -185.0000	-6.4900E-10	-5.2100E-10	-7.6300E-10	-7.5000E-10	-5.6200E-10	-1.061630E-10	-1.060098E-10	-1.059834E-10	-1.063327E-10	-1.063260E-10	   23.0810	 -246.8610	   28.9339	 -246.8610	
 -190.0000	-4.1025E-10	-4.4400E-10	-1.9200E-10	-4.3300E-10	-5.7200E-10	-1.074242E-10	-1.072321E-10	-1.078630E-10	-1.069092E-10	-1.076927E-10	   23.0810	 -246.8610	   28.9447	 -246.8610	
 -195.0000	-6.6275E-10	-6.2800E-10	-8.8500E-10	-6.4400E-10	-4.9400E-10	-1.074664E-10	-1.082150E-10	-1.079722E-10	-1.065656E-10	-1.071129E-10	   23.0810	 -246.8610	   28.9424	 -246.8610	
 -200.0000	-4.4175E-10	-6.5000E-10	-4.5900E-10	-2.0800E-10	-4.5000E-10	-1.071228E-10	-1.065906E-10	-1.070412E-10	-1.075409E-10	-1.073186E-10	   23.0836	 -246.8610	   28.9402	 -246.8610	
 -205.0000	-6.9975E-10	-5.6300E-10	-8.1700E-10	-8.1000E-10	-6.0900E-10	-1.074244E-10	-1.074869E-10	-1.073571E-10	-1.074052E-10	-1.074484E-10	   23.0836	 -246.8610	   28.9383	 -246.8610	
 -210.0000	-7.0800E-10	-5.9100E-10	-8.7700E-10	-7.5700E-10	-6.0700E-10	-1.070451E-10	-1.072074E-10	-1.069819E-10	-1.070877E-10	-1.069035E-10	   23.0810	 -246.8610	   28.9418	 -246.8610	
 -215.0000	-5.3450E-10	-2.4800E-10	-4.5100E-10	-5.6500E-10	-8.7400E-10	-1.086741E-10	-1.087719E-10	-1.091805E-10	-1.093712E-10	-1.073728E-10	   23.0836	 -246.8610	   28.9415	 -246.8610	
 -220.0000	-4.7750E-10	-6.9500E-10	-4.3900E-10	-2.5900E-10	-5.1700E-10	-1.076961E-10	-1.076374E-10	-1.074987E-10	-1.074657E-10	-1.081826E-10	   23.0810	 -246.8610	   28.9374	 -246.8610	
 -225.0000	-7.1675E-10	-5.3000E-10	-7.0300E-10	-9.4700E-10	-6.8700E-10	-1.082936E-10	-1.082718E-10	-1.083001E-10	-1.085625E-10	-1.080398E-10	   23.0836	 -246.8610	   28.9295	 -246.8610	
 -230.0000	-5.2225E-10	-5.6100E-10	-2.7300E-10	-5.1200E-10	-7.4300E-10	-1.083849E-10	-1.080901E-10	-1.087747E-10	-1.083686E-10	-1.083062E-10	   23.0836	 -246.8610	   28.9396	 -246.8610	
 -235.0000	-5.1100E-10	-7.0200E-10	-3.4000E-10	-4.0700E-10	-5.9500E-10	-1.083918E-10	-1.083529E-10	-1.082588E-10	-1.085702E-10	-1.083855E-10	   23.0836	 -246.8610	   28.9371	 -246.8610	
 -240.0000	-6.5150E-10	-1.0310E-9	-7.7000E-10	-5.4900E-10	-2.5600E-10	-1.087622E-10	-1.089294E-10	-1.089683E-10	-1.087002E-10	-1.084510E-10	   23.0836	 -246.8610	   28.9336	 -246.8610	
 -245.0000	-7.5225E-10	-6.7000E-10	-9.9000E-10	-7.8900E-10	-5.6000E-10	-1.094000E-10	-1.090398E-10	-1.093612E-10	-1.095914E-10	-1.096077E-10	   23.0836	 -246.8610	   28.9260	 -246.8610	
 -250.0000	-7.7625E-10	-5.8000E-10	-8.0600E-10	-1.0010E-9	-7.1800E-10	-1.091174E-10	-1.089587E-10	-1.089889E-10	-1.093172E-10	-1.092048E-10	   23.0810	 -246.8610	   28.9311	 -246.8610	
 -255.0000	-7.9325E-10	-6.0900E-10	-8.6800E-10	-9.7100E-10	-7.2500E-10	-1.098054E-10	-1.096837E-10	-1.100597E-10	-1.100581E-10	-1.094200E-10	   23.0810	 -246.8610	   28.9301	 -246.8610	
 -260.0000	-7.8900E-10	-7.9500E-10	-1.0350E-9	-7.7100E-10	-5.5500E-10	-1.090716E-10	-1.089381E-10	-1.093072E-10	-1.092312E-10	-1.088098E-10	   23.0810	 -246.8610	   28.9292	 -246.8610	
 -265.0000	-7.6975E-10	-5.3800E-10	-6.8100E-10	-9.8100E-10	-8.7900E-10	-1.093888E-10	-1.094396E-10	-1.099338E-10	-1.092870E-10	-1.088949E-10	   23.0836	 -246.8610	   28.9326	 -246.8610	
 -270.0000	-5.9775E-10	-5.7100E-10	-3.9700E-10	-6.3000E-10	-7.9300E-10	-1.095432E-10	-1.095443E-10	-1.093412E-10	-1.095347E-10	-1.097525E-10	   23.0836	 -246.8610	   28.9269	 -246.8610	
 -275.0000	-8.3325E-10	-6.5900E-10	-8.3500E-10	-1.0450E-9	-7.9400E-10	-1.100131E-10	-1.101595E-10	-1.096232E-10	-1.100277E-10	-1.102418E-10	   23.0836	 -246.8610	   28.9336	 -246.8610	
 -280.0000	-7.3300E-10	-4.0500E-10	-6.4100E-10	-8.4600E-10	-1.0400E-9	-1.099297E-10	-1.094792E-10	-1.101251E-10	-1.101208E-10	-1.099939E-10	   23.0810	 -246.8610	   28.9288	 -246.8610	
 -285.0000	-8.5250E-10	-7.8800E-10	-1.0890E-9	-8.6300E-10	-6.7000E-10	-1.104331E-10	-1.099422E-10	-1.102987E-10	-1.109308E-10	-1.105607E-10	   23.0836	 -246.8610	   28.9260	 -246.8610	
 -290.0000	-8.7850E-10	-7.8000E-10	-1.0850E-9	-9.1000E-10	-7.3900E-10	-1.103500E-10	-1.102171E-10	-1.100057E-10	-1.107875E-10	-1.103897E-10	   23.0836	 -246.8610	   28.9219	 -246.8610	
 -295.0000	-6.7125E-10	-5.6900E-10	-4.8200E-10	-7.0300E-10	-9.3100E-10	-1.105290E-10	-1.102094E-10	-1.106042E-10	-1.107368E-10	-1.105655E-10	   23.0836	 -246.8610	   28.9250	 -246.8610	
 -300.0000	-6.4875E-10	-6.3900E-10	-4.3500E-10	-6.8100E-10	-8.4000E-10	-1.113935E-10	-1.108458E-10	-1.110365E-10	-1.118487E-10	-1.118432E-10	   23.0810	 -246.8610	   28.9175	 -246.8610	
 -305.0000	-9.0700E-10	-7.8000E-10	-1.0540E-9	-9.7800E-10	-8.1600E-10	-1.107998E-10	-1.106370E-10	-1.108450E-10	-1.108754E-10	-1.108417E-10	   23.0836	 -246.8610	   28.9238	 -246.8610	
 -310.0000	-8.9300E-10	-7.3400E-10	-8.6100E-10	-1.0870E-9	-8.9000E-10	-1.108804E-10	-1.109104E-10	-1.111123E-10	-1.106677E-10	-1.108311E-10	   23.0836	 -246.8610	   28.9292	 -246.8610	
 -315.0000	-9.1900E-10	-8.2000E-10	-1.0760E-9	-9.5300E-10	-8.2700E-10	-1.112677E-10	-1.112384E-10	-1.110919E-10	-1.113920E-10	-1.113486E-10	   23.0810	 -246.8610	   28.9377	 -246.8610	
 -320.0000	-9.2675E-10	-8.5700E-10	-1.0960E-9	-9.3100E-10	-8.2300E-10	-1.116117E-10	-1.114506E-10	-1.112255E-10	-1.116739E-10	-1.120968E-10	   23.0836	 -246.8610	   28.9339	 -246.8610	
 -325.0000	-9.0450E-10	-7.3600E-10	-8.1400E-10	-1.0880E-9	-9.8000E-10	-1.116428E-10	-1.119652E-10	-1.111888E-10	-1.118254E-10	-1.115917E-10	   23.0836	 -246.8610	   28.9336	 -246.8610	
 -330.0000	-6.9675E-10	-8.9500E-10	-7.3100E-10	-4.8100E-10	-6.8000E-10	-1.122126E-10	-1.120927E-10	-1.127641E-10	-1.116531E-10	-1.123406E-10	   23.0836	 -246.8610	   28.9231	 -246.8610	
 -335.0000	-6.9000E-10	-8.2900E-10	-4.9800E-10	-6.5000E-10	-7.8300E-10	-1.118157E-10	-1.117315E-10	-1.118541E-10	-1.117588E-10	-1.119183E-10	   23.0836	 -246.8610	   28.9250	 -246.8610	
 -340.0000	-9.3700E-10	-7.6400E-10	-8.6300E-10	-1.1310E-9	-9.9000E-10	-1.120756E-10	-1.119740E-10	-1.124213E-10	-1.118448E-10	-1.120622E-10	   23.0836	 -246.8610	   28.9171	 -246.8610	
 -345.0000	-8.5375E-10	-1.1540E-9	-9.2900E-10	-8.1700E-10	-5.1500E-10	-1.120971E-10	-1.122642E-10	-1.120194E-10	-1.119097E-10	-1.121950E-10	   23.0836	 -246.8610	   28.9216	 -246.8610	
 -350.0000	-8.7625E-10	-6.1100E-10	-7.9600E-10	-9.4500E-10	-1.1530E-9	-1.122062E-10	-1.120143E-10	-1.124343E-10	-1.120782E-10	-1.122982E-10	   23.0836	 -246.8610	   28.9298	 -246.8610	
 -355.0000	-7.7250E-10	-5.7000E-10	-6.9400E-10	-8.1600E-10	-1.0100E-9	-1.124782E-10	-1.127472E-10	-1.123166E-10	-1.126295E-10	-1.122194E-10	   23.0836	 -246.8610	   28.9165	 -246.8610	
 -360.0000	-7.4100E-10	-9.2600E-10	-6.8800E-10	-5.7300E-10	-7.7700E-10	-1.127084E-10	-1.131324E-10	-1.127382E-10	-1.122013E-10	-1.127617E-10	   23.0836	 -246.8610	   28.9238	 -246.8610	
 -365.0000	-1.0203E-9	-9.9300E-10	-1.1890E-9	-9.9600E-10	-9.0300E-10	-1.130364E-10	-1.132094E-10	-1.138478E-10	-1.124840E-10	-1.126042E-10	   23.0862	 -246.8610	   28.9209	 -246.8610	
 -370.0000	-9.2100E-10	-6.6400E-10	-8.4100E-10	-9.9300E-10	-1.1860E-9	-1.127971E-10	-1.132801E-10	-1.127442E-10	-1.123746E-10	-1.127896E-10	   23.0836	 -246.8610	   28.9181	 -246.8610	
 -375.0000	-8.3025E-10	-1.0810E-9	-9.5300E-10	-6.8000E-10	-6.0700E-10	-1.130949E-10	-1.131226E-10	-1.127806E-10	-1.134800E-10	-1.129963E-10	   23.0836	 -246.8610	   28.9231	 -246.8610	
 -380.0000	-8.2525E-10	-1.0480E-9	-9.4300E-10	-6.3300E-10	-6.7700E-10	-1.137410E-10	-1.136050E-10	-1.138867E-10	-1.140509E-10	-1.134215E-10	   23.0836	 -246.8610	   28.9178	 -246.8610	
 -385.0000	-7.8325E-10	-9.7200E-10	-6.9900E-10	-6.3000E-10	-8.3200E-10	-1.136245E-10	-1.131330E-10	-1.133760E-10	-1.135447E-10	-1.144443E-10	   23.0836	 -246.8610	   28.9219	 -246.8610	
 -390.0000	-7.9775E-10	-9.9200E-10	-6.8900E-10	-6.6000E-10	-8.5000E-10	-1.134018E-10	-1.135881E-10	-1.130847E-10	-1.132090E-10	-1.137254E-10	   23.0836	 -246.8610	   28.9206	 -246.8610	
 -395.0000	-8.0075E-10	-1.0020E-9	-7.1700E-10	-6.4600E-10	-8.3800E-10	-1.135618E-10	-1.134926E-10	-1.135806E-10	-1.133082E-10	-1.138657E-10	   23.0836	 -246.8610	   28.9108	 -246.8610	
 -400.0000	-8.4725E-10	-1.0540E-9	-7.5100E-10	-6.9000E-10	-8.9400E-10	-1.133445E-10	-1.136238E-10	-1.131061E-10	-1.132475E-10	-1.134007E-10	   23.0862	 -246.8610	   28.9282	 -246.8610	
 -410.0000	-1.1618E-9	-1.0110E-9	-1.1350E-9	-1.3580E-9	-1.1430E-9	-1.140401E-10	-1.139254E-10	-1.145003E-10	-1.139091E-10	-1.138256E-10	   23.0862	 -246.8610	   28.9118	 -246.8610	
 -420.0000	-1.1905E-9	-1.0150E-9	-1.1090E-9	-1.3560E-9	-1.2820E-9	-1.145563E-10	-1.146708E-10	-1.144292E-10	-1.147242E-10	-1.144011E-10	   23.0862	 -246.8610	   28.9133	 -246.8610	
 -430.0000	-1.0065E-9	-1.1850E-9	-8.4600E-10	-9.2600E-10	-1.0690E-9	-1.145171E-10	-1.139857E-10	-1.146969E-10	-1.149375E-10	-1.144485E-10	   23.0862	 -246.8610	   28.9124	 -246.8610	
 -440.0000	-1.2025E-9	-9.8100E-10	-1.1330E-9	-1.2480E-9	-1.4480E-9	-1.143613E-10	-1.144100E-10	-1.144302E-10	-1.142819E-10	-1.143230E-10	   23.0836	 -246.8610	   28.9152	 -246.8610	
 -450.0000	-1.2028E-9	-9.5800E-10	-1.1400E-9	-1.2360E-9	-1.4770E-9	-1.150169E-10	-1.155626E-10	-1.149195E-10	-1.147099E-10	-1.148757E-10	   23.0862	 -246.8610	   28.9238	 -246.8610	
 -460.0000	-1.1065E-9	-1.2510E-9	-9.3500E-10	-1.0660E-9	-1.1740E-9	-1.151887E-10	-1.149458E-10	-1.152330E-10	-1.155756E-10	-1.150002E-10	   23.0862	 -246.8610	   28.9111	 -246.8610	
 -470.0000	-1.3960E-9	-1.2800E-9	-1.4820E-9	-1.5120E-9	-1.3100E-9	-1.150028E-10	-1.148105E-10	-1.151434E-10	-1.150662E-10	-1.149910E-10	   23.0862	 -246.8610	   28.9124	 -246.8610	
 -480.0000	-1.1907E-9	-1.4300E-9	-1.2820E-9	-9.5500E-10	-1.0960E-9	-1.156908E-10	-1.153532E-10	-1.156502E-10	-1.159262E-10	-1.158335E-10	   23.0862	 -246.8610	   28.9130	 -246.8610	
 -490.0000	-1.2108E-9	-1.1510E-9	-1.0340E-9	-1.2410E-9	-1.4170E-9	-1.158968E-10	-1.156492E-10	-1.157728E-10	-1.160894E-10	-1.160759E-10	   23.0862	 -246.8610	   28.9143	 -246.8610	
 -500.0000	-1.2028E-9	-1.4140E-9	-1.1010E-9	-1.0500E-9	-1.2460E-9	-1.166795E-10	-1.169737E-10	-1.166502E-10	-1.164672E-10	-1.166271E-10	   23.0862	 -246.8610	   28.9187	 -246.8610	
 -510.0000	-1.2410E-9	-1.4600E-9	-1.2350E-9	-1.0250E-9	-1.2440E-9	-1.163446E-10	-1.165656E-10	-1.161870E-10	-1.163206E-10	-1.163051E-10	   23.0862	 -246.8610	   28.9181	 -246.8610	
 -520.0000	-1.4620E-9	-1.2950E-9	-1.3720E-9	-1.5470E-9	-1.6340E-9	-1.162915E-10	-1.161317E-10	-1.163528E-10	-1.164565E-10	-1.162251E-10	   23.0862	 -246.8610	   28.9168	 -246.8610	
 -530.0000	-1.3438E-9	-1.1480E-9	-1.2960E-9	-1.3710E-9	-1.5600E-9	-1.171873E-10	-1.171505E-10	-1.175225E-10	-1.169313E-10	-1.171449E-10	   23.0862	 -246.8610	   28.9213	 -246.8610	
 -540.0000	-1.5167E-9	-1.3470E-9	-1.4210E-9	-1.6360E-9	-1.6630E-9	-1.170599E-10	-1.170042E-10	-1.168845E-10	-1.173422E-10	-1.170087E-10	   23.0862	 -246.8610	   28.9007	 -246.8610	
 -550.0000	-1.3305E-9	-1.5170E-9	-1.1630E-9	-1.2530E-9	-1.3890E-9	-1.169583E-10	-1.168482E-10	-1.169604E-10	-1.172338E-10	-1.167909E-10	   23.0862	 -246.8610	   28.9140	 -246.8610	
 -560.0000	-1.5767E-9	-1.4210E-9	-1.5010E-9	-1.7440E-9	-1.6410E-9	-1.171609E-10	-1.173208E-10	-1.169930E-10	-1.171682E-10	-1.171617E-10	   23.0862	 -246.8610	   28.9089	 -246.8610	
 -570.0000	-1.4215E-9	-1.2310E-9	-1.3360E-9	-1.4530E-9	-1.6660E-9	-1.178498E-10	-1.180111E-10	-1.180305E-10	-1.174047E-10	-1.179527E-10	   23.0862	 -246.8610	   28.9127	 -246.8610	
 -580.0000	-1.6595E-9	-1.5430E-9	-1.7770E-9	-1.7540E-9	-1.5640E-9	-1.178099E-10	-1.176595E-10	-1.181010E-10	-1.175795E-10	-1.178997E-10	   23.0862	 -246.8610	   28.9032	 -246.8610	
 -590.0000	-1.6025E-9	-1.3780E-9	-1.5200E-9	-1.7000E-9	-1.8120E-9	-1.185589E-10	-1.188494E-10	-1.186098E-10	-1.184668E-10	-1.183095E-10	   23.0862	 -246.8610	   28.9077	 -246.8610	
 -600.0000	-1.5030E-9	-1.7760E-9	-1.6260E-9	-1.3240E-9	-1.2860E-9	-1.188209E-10	-1.185593E-10	-1.190664E-10	-1.187313E-10	-1.189266E-10	   23.0862	 -246.8610	   28.9143	 -246.8610	
 -610.0000	-1.4763E-9	-1.6960E-9	-1.4380E-9	-1.2740E-9	-1.4970E-9	-1.187624E-10	-1.187304E-10	-1.191051E-10	-1.185090E-10	-1.187050E-10	   23.0862	 -246.8610	   28.9035	 -246.8610	
 -620.0000	-1.5745E-9	-1.8720E-9	-1.6970E-9	-1.4500E-9	-1.2790E-9	-1.188536E-10	-1.189364E-10	-1.191169E-10	-1.187062E-10	-1.186547E-10	   23.0862	 -246.8610	   28.9092	 -246.8610	
 -630.0000	-1.7547E-9	-1.6190E-9	-1.7950E-9	-1.9120E-9	-1.6930E-9	-1.191423E-10	-1.193678E-10	-1.189675E-10	-1.190616E-10	-1.191722E-10	   23.0862	 -246.8610	   28.9051	 -246.8610	
 -640.0000	-1.6812E-9	-1.9840E-9	-1.7540E-9	-1.6530E-9	-1.3340E-9	-1.195738E-10	-1.197929E-10	-1.197689E-10	-1.195851E-10	-1.191482E-10	   23.0888	 -246.8610	   28.8988	 -246.8610	
 -650.0000	-1.7165E-9	-1.4750E-9	-1.6450E-9	-1.7830E-9	-1.9630E-9	-1.192246E-10	-1.195017E-10	-1.191552E-10	-1.189955E-10	-1.192460E-10	   23.0862	 -246.8610	   28.8988	 -246.8610	
 -660.0000	-1.5968E-9	-1.8120E-9	-1.6800E-9	-1.3680E-9	-1.5270E-9	-1.196004E-10	-1.193968E-10	-1.197237E-10	-1.197610E-10	-1.195200E-10	   23.0888	 -246.8610	   28.9111	 -246.8610	
 -670.0000	-1.6130E-9	-1.8500E-9	-1.7090E-9	-1.3800E-9	-1.5130E-9	-1.197620E-10	-1.195828E-10	-1.196381E-10	-1.201794E-10	-1.196479E-10	   23.0862	 -246.8610	   28.9171	 -246.8610	
 -680.0000	-1.7663E-9	-1.5120E-9	-1.6890E-9	-1.8400E-9	-2.0240E-9	-1.204014E-10	-1.202780E-10	-1.206526E-10	-1.203660E-10	-1.203090E-10	   23.0862	 -246.8610	   28.9051	 -246.8610	
 -690.0000	-1.7803E-9	-1.5110E-9	-1.7040E-9	-1.8560E-9	-2.0500E-9	-1.202894E-10	-1.198655E-10	-1.208800E-10	-1.199851E-10	-1.204271E-10	   23.0862	 -246.8610	   28.9051	 -246.8610	
 -700.0000	-1.8690E-9	-1.6930E-9	-1.7900E-9	-2.0390E-9	-1.9540E-9	-1.204804E-10	-1.203303E-10	-1.207482E-10	-1.203094E-10	-1.205338E-10	   23.0862	 -246.8610	   28.9058	 -246.8610	
 -710.0000	-1.7350E-9	-2.0100E-9	-1.8700E-9	-1.5710E-9	-1.4890E-9	-1.205727E-10	-1.204345E-10	-1.205104E-10	-1.207054E-10	-1.206406E-10	   23.0862	 -246.8610	   28.9061	 -246.8610	
 -720.0000	-1.8972E-9	-1.7200E-9	-1.8100E-9	-2.0430E-9	-2.0160E-9	-1.208612E-10	-1.211454E-10	-1.205852E-10	-1.205876E-10	-1.211268E-10	   23.0862	 -246.8610	   28.9023	 -246.8610	
 -730.0000	-1.8158E-9	-2.1260E-9	-1.9330E-9	-1.7210E-9	-1.4830E-9	-1.212255E-10	-1.212633E-10	-1.211216E-10	-1.212466E-10	-1.212703E-10	   23.0862	 -246.8610	   28.9133	 -246.8610	
 -740.0000	-1.8322E-9	-2.1580E-9	-1.9400E-9	-1.7430E-9	-1.4880E-9	-1.219159E-10	-1.218690E-10	-1.217687E-10	-1.219549E-10	-1.220712E-10	   23.0888	 -246.8610	   28.9127	 -246.8610	
 -750.0000	-1.7605E-9	-1.9880E-9	-1.6860E-9	-1.5770E-9	-1.7910E-9	-1.216167E-10	-1.219896E-10	-1.214347E-10	-1.215756E-10	-1.214668E-10	   23.0888	 -246.8610	   28.9130	 -246.8610	
 -760.0000	-2.0248E-9	-1.8840E-9	-2.0570E-9	-2.1980E-9	-1.9600E-9	-1.218186E-10	-1.218726E-10	-1.218417E-10	-1.219509E-10	-1.216090E-10	   23.0888	 -246.8610	   28.9020	 -246.8610	
 -770.0000	-1.8665E-9	-2.1600E-9	-1.9870E-9	-1.7120E-9	-1.6070E-9	-1.222691E-10	-1.221466E-10	-1.220119E-10	-1.225980E-10	-1.223201E-10	   23.0888	 -246.8610	   28.8988	 -246.8610	
 -780.0000	-1.9373E-9	-1.6680E-9	-1.8710E-9	-2.0000E-9	-2.2100E-9	-1.229312E-10	-1.231869E-10	-1.229765E-10	-1.231055E-10	-1.224560E-10	   23.0862	 -246.8610	   28.9039	 -246.8610	
 -790.0000	-2.0962E-9	-2.0480E-9	-2.2740E-9	-2.0910E-9	-1.9720E-9	-1.226901E-10	-1.227603E-10	-1.226379E-10	-1.223511E-10	-1.230113E-10	   23.0888	 -246.8610	   28.8985	 -246.8610	
 -800.0000	-1.8900E-9	-2.1430E-9	-2.0140E-9	-1.6830E-9	-1.7200E-9	-1.232783E-10	-1.230889E-10	-1.236939E-10	-1.230130E-10	-1.233175E-10	   23.0888	 -246.8610	   28.9156	 -246.8610	
 -810.0000	-2.0680E-9	-1.8850E-9	-1.9830E-9	-2.2220E-9	-2.1820E-9	-1.234958E-10	-1.232827E-10	-1.236791E-10	-1.231783E-10	-1.238430E-10	   23.0888	 -246.8610	   28.8994	 -246.8610	
 -820.0000	-1.9000E-9	-2.1350E-9	-1.8990E-9	-1.6770E-9	-1.8890E-9	-1.241050E-10	-1.238634E-10	-1.245966E-10	-1.239781E-10	-1.239818E-10	   23.0888	 -246.8610	   28.9010	 -246.8610	
 -830.0000	-2.1387E-9	-1.9790E-9	-2.0810E-9	-2.3380E-9	-2.1570E-9	-1.243732E-10	-1.241453E-10	-1.246593E-10	-1.243336E-10	-1.243546E-10	   23.0888	 -246.8610	   28.8997	 -246.8610	
 -840.0000	-2.1710E-9	-2.0190E-9	-2.1990E-9	-2.3490E-9	-2.1170E-9	-1.250177E-10	-1.249241E-10	-1.250844E-10	-1.251944E-10	-1.248679E-10	   23.0888	 -246.8610	   28.9099	 -246.8610	
 -850.0000	-2.2040E-9	-2.0880E-9	-2.3460E-9	-2.2840E-9	-2.0980E-9	-1.247601E-10	-1.246023E-10	-1.247017E-10	-1.248241E-10	-1.249121E-10	   23.0888	 -246.8610	   28.9096	 -246.8610	
 -860.0000	-2.1680E-9	-1.9460E-9	-2.1030E-9	-2.3910E-9	-2.2320E-9	-1.251472E-10	-1.252344E-10	-1.260724E-10	-1.246709E-10	-1.246112E-10	   23.0888	 -246.8610	   28.9114	 -246.8610	
 -870.0000	-2.1500E-9	-1.8530E-9	-2.0770E-9	-2.3300E-9	-2.3400E-9	-1.255772E-10	-1.260334E-10	-1.255414E-10	-1.253417E-10	-1.253923E-10	   23.0888	 -246.8610	   28.9054	 -246.8610	
 -880.0000	-2.0248E-9	-2.1100E-9	-1.7840E-9	-2.0230E-9	-2.1820E-9	-1.259401E-10	-1.258714E-10	-1.260194E-10	-1.259541E-10	-1.259156E-10	   23.0888	 -246.8610	   28.8982	 -246.8610	
 -890.0000	-2.2577E-9	-2.0900E-9	-2.2350E-9	-2.4830E-9	-2.2230E-9	-1.262997E-10	-1.261026E-10	-1.260121E-10	-1.259905E-10	-1.270938E-10	   23.0888	 -246.8610	   28.9070	 -246.8610	
 -900.0000	-2.2258E-9	-1.9520E-9	-2.1550E-9	-2.4150E-9	-2.3810E-9	-1.270238E-10	-1.267088E-10	-1.269545E-10	-1.272448E-10	-1.271871E-10	   23.0888	 -246.8610	   28.9007	 -246.8610	
 -910.0000	-2.1512E-9	-2.5130E-9	-2.2710E-9	-1.9990E-9	-1.8220E-9	-1.275593E-10	-1.277165E-10	-1.274487E-10	-1.274100E-10	-1.276621E-10	   23.0888	 -246.8610	   28.9178	 -246.8610	
 -920.0000	-2.1433E-9	-2.4530E-9	-2.2630E-9	-1.8590E-9	-1.9980E-9	-1.279041E-10	-1.273548E-10	-1.275913E-10	-1.274727E-10	-1.291977E-10	   23.0888	 -246.8610	   28.9096	 -246.8610	
 -930.0000	-2.2973E-9	-2.0690E-9	-2.2370E-9	-2.5540E-9	-2.3290E-9	-1.277142E-10	-1.277029E-10	-1.277080E-10	-1.277586E-10	-1.276873E-10	   23.0914	 -246.8610	   28.8978	 -246.8610	
 -940.0000	-2.1825E-9	-2.5130E-9	-2.3000E-9	-1.9310E-9	-1.9860E-9	-1.281219E-10	-1.277799E-10	-1.281664E-10	-1.283594E-10	-1.281821E-10	   23.0888	 -246.8610	   28.8988	 -246.8610	
 -950.0000	-2.3865E-9	-2.2420E-9	-2.4780E-9	-2.5240E-9	-2.3020E-9	-1.288384E-10	-1.289119E-10	-1.290005E-10	-1.288595E-10	-1.285815E-10	   23.0914	 -246.8610	   28.9029	 -246.8610	
 -960.0000	-2.2265E-9	-2.5520E-9	-2.3470E-9	-1.9550E-9	-2.0520E-9	-1.294086E-10	-1.291315E-10	-1.289952E-10	-1.297298E-10	-1.297779E-10	   23.0914	 -246.8610	   28.9007	 -246.8610	
 -970.0000	-2.2908E-9	-1.9750E-9	-2.2080E-9	-2.3740E-9	-2.6060E-9	-1.300598E-10	-1.303681E-10	-1.300586E-10	-1.298689E-10	-1.299438E-10	   23.0914	 -246.8610	   28.9159	 -246.8610	
 -980.0000	-2.4498E-9	-2.3500E-9	-2.6090E-9	-2.5080E-9	-2.3320E-9	-1.311913E-10	-1.310952E-10	-1.314366E-10	-1.312926E-10	-1.309410E-10	   23.0888	 -246.8610	   28.9064	 -246.8610	
 -990.0000	-2.2240E-9	-2.4320E-9	-2.0550E-9	-2.1060E-9	-2.3030E-9	-1.314474E-10	-1.314126E-10	-1.313558E-10	-1.313794E-10	-1.316416E-10	   23.0888	 -246.8610	   28.9051	 -246.8610	
-1000.0000	-2.2890E-9	-2.1920E-9	-2.0640E-9	-2.3060E-9	-2.5940E-9	-1.318978E-10	-1.312140E-10	-1.319572E-10	-1.318113E-10	-1.326088E-10	   23.0888	 -246.8610	   28.8991	 -246.8610	
