GCD Test
Bias: 5000.000000
CV_34254_025_PSS_HM_XX_DIODEQUARTER
Date/Time: 4/13/2021 6:18:01 PM
Sensor Name: DIODEQUARTER
Type: P
Annealing Status: Not Irradiated
Environment: RT
Tester: Andrew Kent

Time Delay per Ramp Step (s): 0.500

CV Time Delay per Measurement (s) :0.500

AC Voltage (V): 0.500

Current Number of measurements per voltage: 4.000

IV Time Delay per Measurement (s) :0.000


BiasVoltage	LCR_Cp_freq1000.0	LCR_Cp_freq10000.0	LCR_Rp_freq1000.0	LCR_Rp_freq10000.0	Temperature	Air_Temp	Humidity	Dewpoint	
   -5.0000	1.674E-11	1.670E-11	2.121E+9	1.492E+8	   23.0914	 -246.8610	   28.9339	 -246.8610	
  -10.0000	1.313E-11	1.308E-11	2.513E+9	1.865E+8	   23.0888	 -246.8610	   28.9333	 -246.8610	
  -15.0000	1.148E-11	1.140E-11	2.726E+9	1.967E+8	   23.0914	 -246.8610	   28.9314	 -246.8610	
  -20.0000	1.044E-11	1.037E-11	2.668E+9	2.015E+8	   23.0888	 -246.8610	   28.9311	 -246.8610	
  -25.0000	9.697E-12	9.625E-12	2.832E+9	2.089E+8	   23.0888	 -246.8610	   28.9390	 -246.8610	
  -30.0000	9.148E-12	9.071E-12	2.652E+9	2.020E+8	   23.0914	 -246.8610	   28.9349	 -246.8610	
  -35.0000	8.667E-12	8.572E-12	2.549E+9	2.159E+8	   23.0914	 -246.8610	   28.9386	 -246.8610	
  -40.0000	8.254E-12	8.160E-12	2.696E+9	2.200E+8	   23.0914	 -246.8610	   28.9405	 -246.8610	
  -45.0000	7.875E-12	7.785E-12	2.756E+9	2.228E+8	   23.0914	 -246.8610	   28.9447	 -246.8610	
  -50.0000	7.517E-12	7.422E-12	2.528E+9	2.236E+8	   23.0914	 -246.8610	   28.9323	 -246.8610	
  -55.0000	7.178E-12	7.083E-12	2.644E+9	2.215E+8	   23.0914	 -246.8610	   28.9405	 -246.8610	
  -60.0000	6.914E-12	6.828E-12	2.723E+9	2.082E+8	   23.0914	 -246.8610	   28.9399	 -246.8610	
  -65.0000	6.759E-12	6.660E-12	2.617E+9	1.454E+8	   23.0914	 -246.8610	   28.9352	 -246.8610	
  -70.0000	6.624E-12	6.450E-12	1.590E+9	1.196E+8	   23.0914	 -246.8610	   28.9402	 -246.8610	
  -75.0000	6.451E-12	6.328E-12	1.848E+9	6.908E+7	   23.0914	 -246.8610	   28.9516	 -246.8610	
  -80.0000	6.372E-12	6.119E-12	1.492E+9	4.108E+7	   23.0914	 -246.8610	   28.9437	 -246.8610	
  -85.0000	6.289E-12	5.775E-12	8.523E+8	3.580E+7	   23.0914	 -246.8610	   28.9412	 -246.8610	
  -90.0000	6.035E-12	5.459E-12	4.100E+8	6.399E+7	   23.0939	 -246.8610	   28.9535	 -246.8610	
  -95.0000	5.600E-12	5.361E-12	4.919E+8	1.457E+8	   23.0914	 -246.8610	   28.9456	 -246.8610	
 -100.0000	5.426E-12	5.307E-12	1.149E+9	2.350E+8	   23.0914	 -246.8610	   28.9491	 -246.8610	
 -105.0000	5.357E-12	5.277E-12	1.596E+9	3.014E+8	   23.0939	 -246.8610	   28.9421	 -246.8610	
 -110.0000	5.332E-12	5.253E-12	2.017E+9	3.165E+8	   23.0914	 -246.8610	   28.9478	 -246.8610	
 -115.0000	5.306E-12	5.236E-12	2.220E+9	2.923E+8	   23.0914	 -246.8610	   28.9548	 -246.8610	
 -120.0000	5.284E-12	5.212E-12	2.120E+9	2.925E+8	   23.0914	 -246.8610	   28.9579	 -246.8610	
 -125.0000	5.262E-12	5.190E-12	2.303E+9	2.946E+8	   23.0914	 -246.8610	   28.9583	 -246.8610	
 -130.0000	5.238E-12	5.168E-12	2.228E+9	2.943E+8	   23.0939	 -246.8610	   28.9447	 -246.8610	
 -135.0000	5.219E-12	5.149E-12	2.433E+9	2.963E+8	   23.0914	 -246.8610	   28.9551	 -246.8610	
 -140.0000	5.204E-12	5.130E-12	2.350E+9	2.987E+8	   23.0914	 -246.8610	   28.9579	 -246.8610	
 -145.0000	5.183E-12	5.113E-12	2.372E+9	3.016E+8	   23.0939	 -246.8610	   28.9570	 -246.8610	
 -150.0000	5.170E-12	5.097E-12	2.316E+9	2.994E+8	   23.0939	 -246.8610	   28.9522	 -246.8610	
 -155.0000	5.152E-12	5.082E-12	2.459E+9	3.003E+8	   23.0914	 -246.8610	   28.9595	 -246.8610	
 -160.0000	5.139E-12	5.068E-12	2.471E+9	3.020E+8	   23.0914	 -246.8610	   28.9652	 -246.8610	
 -165.0000	5.127E-12	5.054E-12	2.464E+9	3.024E+8	   23.0914	 -246.8610	   28.9611	 -246.8610	
 -170.0000	5.117E-12	5.046E-12	2.518E+9	3.100E+8	   23.0939	 -246.8610	   28.9750	 -246.8610	
 -175.0000	5.104E-12	5.031E-12	2.439E+9	3.040E+8	   23.0939	 -246.8610	   28.9611	 -246.8610	
 -180.0000	5.091E-12	5.021E-12	2.611E+9	3.016E+8	   23.0939	 -246.8610	   28.9715	 -246.8610	
 -185.0000	5.084E-12	5.010E-12	2.673E+9	3.049E+8	   23.0939	 -246.8610	   28.9611	 -246.8610	
 -190.0000	5.071E-12	5.000E-12	2.663E+9	3.032E+8	   23.0939	 -246.8610	   28.9636	 -246.8610	
 -195.0000	5.063E-12	4.991E-12	2.661E+9	3.018E+8	   23.0939	 -246.8610	   28.9706	 -246.8610	
 -200.0000	5.050E-12	4.982E-12	2.628E+9	3.036E+8	   23.0939	 -246.8610	   28.9624	 -246.8610	
 -205.0000	5.044E-12	4.973E-12	2.663E+9	3.048E+8	   23.0939	 -246.8610	   28.9766	 -246.8610	
 -210.0000	5.038E-12	4.965E-12	2.607E+9	3.025E+8	   23.0939	 -246.8610	   28.9671	 -246.8610	
 -215.0000	5.030E-12	4.957E-12	2.725E+9	3.047E+8	   23.0965	 -246.8610	   28.9747	 -246.8610	
 -220.0000	5.021E-12	4.948E-12	2.638E+9	3.041E+8	   23.0939	 -246.8610	   28.9734	 -246.8610	
 -225.0000	5.016E-12	4.940E-12	2.639E+9	3.044E+8	   23.0939	 -246.8610	   28.9684	 -246.8610	
 -230.0000	5.005E-12	4.933E-12	2.977E+9	3.028E+8	   23.0939	 -246.8610	   28.9766	 -246.8610	
 -235.0000	4.998E-12	4.925E-12	2.885E+9	3.030E+8	   23.0939	 -246.8610	   28.9728	 -246.8610	
 -240.0000	4.988E-12	4.918E-12	2.904E+9	3.054E+8	   23.0939	 -246.8610	   28.9725	 -246.8610	
 -245.0000	4.984E-12	4.911E-12	2.820E+9	3.046E+8	   23.0965	 -246.8610	   28.9763	 -246.8610	
 -250.0000	4.978E-12	4.905E-12	2.977E+9	3.041E+8	   23.0965	 -246.8610	   28.9700	 -246.8610	
 -255.0000	4.972E-12	4.900E-12	3.154E+9	3.056E+8	   23.0939	 -246.8610	   28.9807	 -246.8610	
 -260.0000	4.966E-12	4.896E-12	3.031E+9	3.070E+8	   23.0939	 -246.8610	   28.9791	 -246.8610	
 -265.0000	4.964E-12	4.893E-12	3.108E+9	3.078E+8	   23.0939	 -246.8610	   28.9813	 -246.8610	
 -270.0000	4.962E-12	4.891E-12	3.235E+9	3.053E+8	   23.0965	 -246.8610	   28.9911	 -246.8610	
 -275.0000	4.958E-12	4.889E-12	2.959E+9	3.067E+8	   23.0965	 -246.8610	   28.9839	 -246.8610	
 -280.0000	4.956E-12	4.888E-12	3.134E+9	3.082E+8	   23.0939	 -246.8610	   28.9886	 -246.8610	
 -285.0000	4.951E-12	4.886E-12	3.148E+9	3.095E+8	   23.0965	 -246.8610	   28.9915	 -246.8610	
 -290.0000	4.955E-12	4.885E-12	3.195E+9	3.098E+8	   23.0965	 -246.8610	   28.9798	 -246.8610	
 -295.0000	4.952E-12	4.884E-12	2.997E+9	3.083E+8	   23.0965	 -246.8610	   28.9902	 -246.8610	
 -300.0000	4.948E-12	4.883E-12	3.017E+9	3.096E+8	   23.0939	 -246.8610	   28.9744	 -246.8610	
 -305.0000	4.949E-12	4.882E-12	2.957E+9	3.087E+8	   23.0965	 -246.8610	   28.9842	 -246.8610	
 -310.0000	4.951E-12	4.882E-12	3.332E+9	3.084E+8	   23.0965	 -246.8610	   28.9823	 -246.8610	
 -315.0000	4.948E-12	4.881E-12	3.185E+9	3.117E+8	   23.0965	 -246.8610	   28.9940	 -246.8610	
 -320.0000	4.952E-12	4.881E-12	3.172E+9	3.087E+8	   23.0965	 -246.8610	   28.9817	 -246.8610	
 -325.0000	4.951E-12	4.880E-12	3.284E+9	3.106E+8	   23.0965	 -246.8610	   28.9902	 -246.8610	
 -330.0000	4.947E-12	4.880E-12	3.059E+9	3.086E+8	   23.0965	 -246.8610	   28.9927	 -246.8610	
 -335.0000	4.943E-12	4.879E-12	2.969E+9	3.097E+8	   23.0965	 -246.8610	   28.9987	 -246.8610	
 -340.0000	4.946E-12	4.879E-12	3.221E+9	3.119E+8	   23.0965	 -246.8610	   28.9848	 -246.8610	
 -345.0000	4.948E-12	4.879E-12	3.059E+9	3.095E+8	   23.0965	 -246.8610	   28.9984	 -246.8610	
 -350.0000	4.945E-12	4.878E-12	3.138E+9	3.103E+8	   23.0965	 -246.8610	   28.9975	 -246.8610	
 -355.0000	4.949E-12	4.878E-12	3.098E+9	3.103E+8	   23.0965	 -246.8610	   28.9839	 -246.8610	
 -360.0000	4.945E-12	4.877E-12	2.981E+9	3.122E+8	   23.0965	 -246.8610	   28.9902	 -246.8610	
 -365.0000	4.942E-12	4.877E-12	2.965E+9	3.110E+8	   23.0965	 -246.8610	   28.9956	 -246.8610	
 -370.0000	4.948E-12	4.880E-12	3.310E+9	3.171E+8	   23.0965	 -246.8610	   28.9823	 -246.8610	
 -375.0000	4.943E-12	4.877E-12	3.114E+9	3.122E+8	   23.0991	 -246.8610	   28.9968	 -246.8610	
 -380.0000	4.947E-12	4.877E-12	3.083E+9	3.101E+8	   23.0991	 -246.8610	   29.0022	 -246.8610	
 -385.0000	4.942E-12	4.876E-12	3.098E+9	3.102E+8	   23.0965	 -246.8610	   28.9911	 -246.8610	
 -390.0000	4.946E-12	4.876E-12	3.132E+9	3.091E+8	   23.0965	 -246.8610	   28.9886	 -246.8610	
 -395.0000	4.945E-12	4.876E-12	3.037E+9	3.100E+8	   23.0965	 -246.8610	   29.0016	 -246.8610	
 -400.0000	4.946E-12	4.876E-12	3.096E+9	3.109E+8	   23.0965	 -246.8610	   29.0019	 -246.8610	
 -410.0000	4.941E-12	4.875E-12	3.027E+9	3.112E+8	   23.0991	 -246.8610	   28.9956	 -246.8610	
 -420.0000	4.945E-12	4.875E-12	3.029E+9	3.096E+8	   23.0965	 -246.8610	   29.0035	 -246.8610	
 -430.0000	4.943E-12	4.875E-12	3.292E+9	3.110E+8	   23.0965	 -246.8610	   28.9940	 -246.8610	
 -440.0000	4.944E-12	4.874E-12	2.889E+9	3.113E+8	   23.0991	 -246.8610	   29.0079	 -246.8610	
 -450.0000	4.942E-12	4.875E-12	3.053E+9	3.099E+8	   23.0991	 -246.8610	   29.0003	 -246.8610	
 -460.0000	4.945E-12	4.874E-12	3.154E+9	3.115E+8	   23.0965	 -246.8610	   28.9940	 -246.8610	
 -470.0000	4.941E-12	4.874E-12	3.208E+9	3.107E+8	   23.0965	 -246.8610	   29.0044	 -246.8610	
 -480.0000	4.941E-12	4.874E-12	3.152E+9	3.097E+8	   23.0991	 -246.8610	   28.9953	 -246.8610	
 -490.0000	4.939E-12	4.874E-12	2.929E+9	3.101E+8	   23.0965	 -246.8610	   28.9911	 -246.8610	
 -500.0000	4.942E-12	4.873E-12	3.187E+9	3.106E+8	   23.0965	 -246.8610	   29.0009	 -246.8610	
 -510.0000	4.937E-12	4.873E-12	3.168E+9	3.105E+8	   23.0965	 -246.8610	   29.0070	 -246.8610	
 -520.0000	4.939E-12	4.873E-12	3.145E+9	3.115E+8	   23.0991	 -246.8610	   28.9943	 -246.8610	
 -530.0000	4.944E-12	4.873E-12	3.004E+9	3.096E+8	   23.0991	 -246.8610	   29.0089	 -246.8610	
 -540.0000	4.941E-12	4.873E-12	3.145E+9	3.105E+8	   23.0991	 -246.8610	   28.9968	 -246.8610	
 -550.0000	4.938E-12	4.873E-12	3.041E+9	3.112E+8	   23.0965	 -246.8610	   28.9978	 -246.8610	
 -560.0000	4.940E-12	4.873E-12	3.188E+9	3.105E+8	   23.0991	 -246.8610	   29.0000	 -246.8610	
 -570.0000	4.942E-12	4.872E-12	3.080E+9	3.116E+8	   23.0991	 -246.8610	   29.0076	 -246.8610	
 -580.0000	4.941E-12	4.872E-12	3.076E+9	3.113E+8	   23.0991	 -246.8610	   28.9991	 -246.8610	
 -590.0000	4.941E-12	4.872E-12	3.109E+9	3.104E+8	   23.0991	 -246.8610	   28.9934	 -246.8610	
 -600.0000	4.938E-12	4.872E-12	3.108E+9	3.111E+8	   23.0991	 -246.8610	   28.9927	 -246.8610	
