GCD Test
Bias: 5000.000000
IV_37389_012_PSS_HM_XX_DIODEHALF_Annealed_60C_80min
Date/Time: 2/4/2022 1:44:08 PM
Sensor Name: DIODEHALF
Type: P
Annealing Status: Irradiated and Annealed at 60C for 80 minutes
Environment: -20C
Tester: Andrew Kent

Time Delay per Ramp Step (s): 1.000

CV Time Delay per Measurement (s) :0.500

AC Voltage (V): 0.500

Current Number of measurements per voltage: 4.000

IV Time Delay per Measurement (s) :0.000


BiasVoltage	Total Current_Avg	Total Current_0	Total Current_1	Total Current_2	Total Current_3	Bias Current_Avg	Bias Current_0	Bias Current_1	Bias Current_2	Bias Current_3	Temperature	Air_Temp	Humidity	Dewpoint	
  -10.0000	-5.5623E-7	-5.5760E-7	-5.5560E-7	-5.5570E-7	-5.5600E-7	-5.493428E-7	-5.529769E-7	-5.507436E-7	-5.479433E-7	-5.457076E-7	  -19.9957	   10.3303	    3.6385	  -31.0381	
  -20.0000	-7.3057E-7	-7.3200E-7	-7.3400E-7	-7.2910E-7	-7.2720E-7	-7.244612E-7	-7.265424E-7	-7.249429E-7	-7.244394E-7	-7.219199E-7	  -20.0033	   10.3303	    3.6344	  -31.0499	
  -30.0000	-8.7025E-7	-8.6280E-7	-8.6800E-7	-8.7310E-7	-8.7710E-7	-8.767088E-7	-8.787094E-7	-8.776517E-7	-8.763961E-7	-8.740780E-7	  -20.0033	   10.2160	    3.6429	  -31.1050	
  -40.0000	-1.0012E-6	-1.0005E-6	-9.9990E-7	-1.0035E-6	-1.0009E-6	-9.937089E-7	-9.968967E-7	-9.957364E-7	-9.935626E-7	-9.886401E-7	  -19.9957	   10.1959	    3.6319	  -31.1506	
  -50.0000	-1.0930E-6	-1.0930E-6	-1.0970E-6	-1.0920E-6	-1.0900E-6	-1.096495E-6	-1.093690E-6	-1.101935E-6	-1.098107E-6	-1.092247E-6	  -20.0008	   10.1869	    3.6050	  -31.2341	
  -60.0000	-1.1845E-6	-1.1900E-6	-1.1900E-6	-1.1830E-6	-1.1750E-6	-1.181044E-6	-1.182288E-6	-1.184382E-6	-1.181178E-6	-1.176326E-6	  -20.0008	   10.1706	    3.5819	  -31.3121	
  -70.0000	-1.2733E-6	-1.2840E-6	-1.2800E-6	-1.2700E-6	-1.2590E-6	-1.266122E-6	-1.265994E-6	-1.268839E-6	-1.267401E-6	-1.262254E-6	  -20.0033	   10.1794	    3.5506	  -31.3972	
  -80.0000	-1.3310E-6	-1.3380E-6	-1.3260E-6	-1.3260E-6	-1.3340E-6	-1.344770E-6	-1.343365E-6	-1.341526E-6	-1.346724E-6	-1.347464E-6	  -20.0135	   10.1134	    3.5228	  -31.5245	
  -90.0000	-1.4075E-6	-1.4140E-6	-1.4060E-6	-1.4060E-6	-1.4040E-6	-1.413642E-6	-1.411992E-6	-1.416292E-6	-1.413537E-6	-1.412749E-6	  -20.0109	   10.2329	    3.5190	  -31.4529	
 -100.0000	-1.4585E-6	-1.4590E-6	-1.4510E-6	-1.4550E-6	-1.4690E-6	-1.479423E-6	-1.475350E-6	-1.482077E-6	-1.482569E-6	-1.477696E-6	  -20.0084	   10.2513	    3.4978	  -31.5027	
 -110.0000	-1.5355E-6	-1.5330E-6	-1.5360E-6	-1.5330E-6	-1.5400E-6	-1.549280E-6	-1.544008E-6	-1.547730E-6	-1.549628E-6	-1.555752E-6	  -20.0109	   10.2717	    3.4921	  -31.5055	
 -120.0000	-1.6090E-6	-1.6160E-6	-1.6140E-6	-1.6000E-6	-1.6060E-6	-1.601045E-6	-1.602917E-6	-1.596640E-6	-1.598421E-6	-1.606202E-6	  -20.0084	   10.1657	    3.5398	  -31.4382	
 -130.0000	-1.6678E-6	-1.6580E-6	-1.6720E-6	-1.6620E-6	-1.6790E-6	-1.679104E-6	-1.681858E-6	-1.678285E-6	-1.672949E-6	-1.683325E-6	  -20.0084	   10.1657	    3.5398	  -31.4382	
 -140.0000	-1.7158E-6	-1.7170E-6	-1.7060E-6	-1.7170E-6	-1.7230E-6	-1.723390E-6	-1.728905E-6	-1.726080E-6	-1.719212E-6	-1.719365E-6	  -20.0033	   10.1952	    3.5553	  -31.3724	
 -150.0000	-1.7745E-6	-1.7820E-6	-1.7860E-6	-1.7690E-6	-1.7610E-6	-1.781705E-6	-1.770171E-6	-1.784410E-6	-1.786990E-6	-1.785248E-6	  -20.0008	   10.1767	    3.5854	  -31.2978	
 -160.0000	-1.8275E-6	-1.8470E-6	-1.8250E-6	-1.8190E-6	-1.8190E-6	-1.818579E-6	-1.813115E-6	-1.810273E-6	-1.820228E-6	-1.830701E-6	  -20.0008	   10.2552	    3.6259	  -31.1266	
 -170.0000	-1.8792E-6	-1.8710E-6	-1.8820E-6	-1.8860E-6	-1.8780E-6	-1.875236E-6	-1.870576E-6	-1.869766E-6	-1.881999E-6	-1.878604E-6	  -20.0033	   10.2552	    3.6290	  -31.1175	
 -180.0000	-1.9165E-6	-1.9230E-6	-1.9180E-6	-1.9170E-6	-1.9080E-6	-1.927225E-6	-1.914590E-6	-1.927736E-6	-1.933456E-6	-1.933119E-6	  -20.0008	   10.2140	    3.6357	  -31.1272	
 -190.0000	-1.9740E-6	-1.9720E-6	-1.9680E-6	-1.9800E-6	-1.9760E-6	-1.977806E-6	-1.969334E-6	-1.986814E-6	-1.982253E-6	-1.972824E-6	  -20.0033	   10.1462	    3.6689	  -31.0797	
 -200.0000	-2.0343E-6	-2.0280E-6	-2.0470E-6	-2.0410E-6	-2.0210E-6	-2.005403E-6	-2.008174E-6	-2.005439E-6	-2.007297E-6	-2.000702E-6	  -19.9982	   10.1277	    3.6815	  -31.0567	
 -210.0000	-2.0670E-6	-2.0610E-6	-2.0510E-6	-2.0670E-6	-2.0890E-6	-2.096610E-6	-2.098530E-6	-2.104965E-6	-2.100897E-6	-2.082048E-6	  -19.9931	   10.0656	    3.6948	  -31.0625	
 -220.0000	-2.1282E-6	-2.1130E-6	-2.1130E-6	-2.1330E-6	-2.1540E-6	-2.148430E-6	-2.151873E-6	-2.154792E-6	-2.144702E-6	-2.142353E-6	  -19.9957	   10.0508	    3.7324	  -30.9673	
 -230.0000	-2.1795E-6	-2.1840E-6	-2.1740E-6	-2.1750E-6	-2.1850E-6	-2.177777E-6	-2.185513E-6	-2.173108E-6	-2.176660E-6	-2.175828E-6	  -19.9982	   10.0859	    3.7359	  -30.9332	
 -240.0000	-2.2118E-6	-2.1930E-6	-2.2110E-6	-2.2180E-6	-2.2250E-6	-2.233623E-6	-2.220592E-6	-2.227643E-6	-2.235838E-6	-2.250420E-6	  -20.0008	   10.0924	    3.7407	  -30.9154	
 -250.0000	-2.2980E-6	-2.2930E-6	-2.3050E-6	-2.2910E-6	-2.3030E-6	-2.293789E-6	-2.309785E-6	-2.297465E-6	-2.287893E-6	-2.280013E-6	  -19.9957	   10.0763	    3.7457	  -30.9125	
 -260.0000	-2.3000E-6	-2.2990E-6	-2.3050E-6	-2.2960E-6	-2.3000E-6	-2.299466E-6	-2.292747E-6	-2.291093E-6	-2.306837E-6	-2.307188E-6	  -20.0059	   10.0582	    3.7473	  -30.9208	
 -270.0000	-2.3322E-6	-2.3330E-6	-2.3330E-6	-2.3220E-6	-2.3410E-6	-2.334635E-6	-2.347302E-6	-2.340474E-6	-2.327615E-6	-2.323149E-6	  -19.9982	   10.0727	    3.7644	  -30.8632	
 -280.0000	-2.3825E-6	-2.3850E-6	-2.3850E-6	-2.3810E-6	-2.3790E-6	-2.392292E-6	-2.391741E-6	-2.395501E-6	-2.396094E-6	-2.385831E-6	  -20.0008	   10.0727	    3.7647	  -30.8623	
 -290.0000	-2.3945E-6	-2.4020E-6	-2.3860E-6	-2.4030E-6	-2.3870E-6	-2.381226E-6	-2.373944E-6	-2.380848E-6	-2.383141E-6	-2.386972E-6	  -20.0008	   10.0747	    3.7894	  -30.7928	
 -300.0000	-2.4502E-6	-2.4580E-6	-2.4570E-6	-2.4410E-6	-2.4450E-6	-2.462561E-6	-2.451103E-6	-2.450085E-6	-2.473547E-6	-2.475508E-6	  -20.0059	   10.1437	    3.8305	  -30.6318	
 -310.0000	-2.5280E-6	-2.5240E-6	-2.5290E-6	-2.5300E-6	-2.5290E-6	-2.545355E-6	-2.539514E-6	-2.556982E-6	-2.554508E-6	-2.530418E-6	  -20.0059	   10.0974	    3.8419	  -30.6332	
 -320.0000	-2.5475E-6	-2.5450E-6	-2.5470E-6	-2.5590E-6	-2.5390E-6	-2.535907E-6	-2.525209E-6	-2.526965E-6	-2.548135E-6	-2.543320E-6	  -20.0033	   10.1076	    3.8596	  -30.5780	
 -330.0000	-2.5895E-6	-2.5950E-6	-2.5900E-6	-2.5820E-6	-2.5910E-6	-2.586164E-6	-2.593672E-6	-2.590981E-6	-2.579524E-6	-2.580479E-6	  -20.0084	   10.1281	    3.8738	  -30.5251	
 -340.0000	-2.6115E-6	-2.6140E-6	-2.6130E-6	-2.6110E-6	-2.6080E-6	-2.613977E-6	-2.607526E-6	-2.621354E-6	-2.612207E-6	-2.614823E-6	  -20.0008	   10.1026	    3.8779	  -30.5319	
 -350.0000	-2.6690E-6	-2.6660E-6	-2.6680E-6	-2.6760E-6	-2.6660E-6	-2.655615E-6	-2.667781E-6	-2.651031E-6	-2.652984E-6	-2.650664E-6	  -20.0059	   10.0222	    3.8526	  -30.6566	
 -360.0000	-2.7112E-6	-2.6930E-6	-2.7120E-6	-2.7240E-6	-2.7160E-6	-2.692758E-6	-2.693863E-6	-2.704304E-6	-2.691958E-6	-2.680908E-6	  -20.0084	   10.0101	    3.8381	  -30.7046	
 -370.0000	-2.7447E-6	-2.7520E-6	-2.7600E-6	-2.7290E-6	-2.7380E-6	-2.738946E-6	-2.745337E-6	-2.743436E-6	-2.734232E-6	-2.732781E-6	  -19.9957	   10.0545	    3.8267	  -30.7046	
 -380.0000	-2.7200E-6	-2.7020E-6	-2.7140E-6	-2.7290E-6	-2.7350E-6	-2.743415E-6	-2.728912E-6	-2.745582E-6	-2.744176E-6	-2.754990E-6	  -20.0008	   10.0729	    3.8264	  -30.6926	
 -390.0000	-2.8115E-6	-2.8100E-6	-2.8190E-6	-2.8210E-6	-2.7960E-6	-2.814601E-6	-2.795638E-6	-2.813455E-6	-2.814977E-6	-2.834334E-6	  -20.0008	    9.9708	    3.8371	  -30.7347	
 -400.0000	-2.8608E-6	-2.8660E-6	-2.8560E-6	-2.8570E-6	-2.8640E-6	-2.882337E-6	-2.867935E-6	-2.880971E-6	-2.886242E-6	-2.894202E-6	  -19.9957	    9.9848	    3.8488	  -30.6931	
 -410.0000	-2.8908E-6	-2.9260E-6	-2.8930E-6	-2.8720E-6	-2.8720E-6	-2.891806E-6	-2.863009E-6	-2.882300E-6	-2.904012E-6	-2.917905E-6	  -20.0059	    9.9707	    3.8419	  -30.7218	
 -420.0000	-2.9368E-6	-2.9820E-6	-2.9440E-6	-2.9190E-6	-2.9020E-6	-2.904565E-6	-2.899330E-6	-2.914741E-6	-2.907008E-6	-2.897183E-6	  -20.0033	    9.9687	    3.8295	  -30.7569	
 -430.0000	-2.9348E-6	-2.9340E-6	-2.9260E-6	-2.9400E-6	-2.9390E-6	-2.935240E-6	-2.918077E-6	-2.923509E-6	-2.948806E-6	-2.950567E-6	  -19.9982	   10.0070	    3.7840	  -30.8549	
 -440.0000	-2.9705E-6	-3.0080E-6	-2.9810E-6	-2.9520E-6	-2.9410E-6	-2.948177E-6	-2.946013E-6	-2.935031E-6	-2.943448E-6	-2.968214E-6	  -19.9880	    9.9918	    3.7571	  -30.9398	
 -450.0000	-2.9578E-6	-2.9830E-6	-2.9610E-6	-2.9410E-6	-2.9460E-6	-2.977038E-6	-2.962802E-6	-2.976957E-6	-2.987187E-6	-2.981205E-6	  -19.9982	   10.0119	    3.7034	  -31.0760	
 -460.0000	-3.0195E-6	-3.0230E-6	-3.0120E-6	-3.0070E-6	-3.0360E-6	-3.054102E-6	-3.044549E-6	-3.029773E-6	-3.065279E-6	-3.076807E-6	  -19.9906	   10.0631	    3.6932	  -31.0687	
 -470.0000	-3.1107E-6	-3.1210E-6	-3.1040E-6	-3.1060E-6	-3.1120E-6	-3.103174E-6	-3.120942E-6	-3.097844E-6	-3.086652E-6	-3.107259E-6	  -20.0008	   10.0382	    3.6790	  -31.1263	
 -480.0000	-3.1308E-6	-3.1290E-6	-3.1470E-6	-3.1370E-6	-3.1100E-6	-3.084330E-6	-3.100191E-6	-3.088871E-6	-3.078222E-6	-3.070037E-6	  -20.0033	   10.0053	    3.6923	  -31.1117	
 -490.0000	-3.1328E-6	-3.1420E-6	-3.1200E-6	-3.1290E-6	-3.1400E-6	-3.145804E-6	-3.131962E-6	-3.144984E-6	-3.152223E-6	-3.154048E-6	  -20.0033	    9.9251	    3.7125	  -31.1107	
 -500.0000	-3.1520E-6	-3.1600E-6	-3.1480E-6	-3.1380E-6	-3.1620E-6	-3.163806E-6	-3.180877E-6	-3.173284E-6	-3.160186E-6	-3.140876E-6	  -19.9982	    9.9622	    3.7188	  -31.0671	
 -510.0000	-3.1528E-6	-3.1610E-6	-3.1360E-6	-3.1510E-6	-3.1630E-6	-3.153636E-6	-3.154024E-6	-3.154129E-6	-3.155488E-6	-3.150902E-6	  -20.0084	    9.9543	    3.7239	  -31.0585	
 -520.0000	-3.1600E-6	-3.1610E-6	-3.1490E-6	-3.1480E-6	-3.1820E-6	-3.200945E-6	-3.204993E-6	-3.204090E-6	-3.202197E-6	-3.192499E-6	  -20.0135	    9.9898	    3.6989	  -31.1038	
 -530.0000	-3.2457E-6	-3.2360E-6	-3.2340E-6	-3.2550E-6	-3.2580E-6	-3.262925E-6	-3.263860E-6	-3.252724E-6	-3.262009E-6	-3.273106E-6	  -19.9982	   10.0309	    3.6853	  -31.1135	
 -540.0000	-3.3112E-6	-3.2950E-6	-3.3050E-6	-3.3170E-6	-3.3280E-6	-3.303923E-6	-3.313599E-6	-3.309990E-6	-3.305429E-6	-3.286672E-6	  -20.0059	   10.0193	    3.6622	  -31.1869	
 -550.0000	-3.3130E-6	-3.3110E-6	-3.3190E-6	-3.3230E-6	-3.2990E-6	-3.316719E-6	-3.306985E-6	-3.325829E-6	-3.327831E-6	-3.306233E-6	  -19.9982	   10.0662	    3.6502	  -31.1884	
 -560.0000	-3.3150E-6	-3.2880E-6	-3.3090E-6	-3.3330E-6	-3.3300E-6	-3.357967E-6	-3.336746E-6	-3.366149E-6	-3.365949E-6	-3.363022E-6	  -20.0033	    9.9100	    3.6524	  -31.2908	
 -570.0000	-3.3672E-6	-3.3670E-6	-3.3600E-6	-3.3720E-6	-3.3700E-6	-3.349181E-6	-3.359136E-6	-3.352923E-6	-3.344202E-6	-3.340462E-6	  -19.9982	    9.9100	    3.6445	  -31.3134	
 -580.0000	-3.3603E-6	-3.3840E-6	-3.3690E-6	-3.3340E-6	-3.3540E-6	-3.377112E-6	-3.377852E-6	-3.383119E-6	-3.375213E-6	-3.372263E-6	  -19.9982	    9.8350	    3.6464	  -31.3602	
 -590.0000	-3.4230E-6	-3.4310E-6	-3.4130E-6	-3.4250E-6	-3.4230E-6	-3.407026E-6	-3.416130E-6	-3.405808E-6	-3.398641E-6	-3.407526E-6	  -19.9982	    9.8839	    3.6483	  -31.3208	
 -600.0000	-3.4082E-6	-3.4080E-6	-3.4020E-6	-3.3950E-6	-3.4280E-6	-3.454343E-6	-3.453810E-6	-3.455811E-6	-3.454241E-6	-3.453511E-6	  -19.9957	    9.9304	    3.6499	  -31.2839	
 -610.0000	-3.4692E-6	-3.4490E-6	-3.4690E-6	-3.4880E-6	-3.4710E-6	-3.492531E-6	-3.478846E-6	-3.490246E-6	-3.500789E-6	-3.500241E-6	  -19.9957	    9.9304	    3.6499	  -31.2839	
 -620.0000	-3.5015E-6	-3.4910E-6	-3.4950E-6	-3.4980E-6	-3.5220E-6	-3.544044E-6	-3.548211E-6	-3.542250E-6	-3.539314E-6	-3.546403E-6	  -20.0008	    9.9029	    3.6338	  -31.3490	
 -630.0000	-3.5525E-6	-3.5750E-6	-3.5470E-6	-3.5400E-6	-3.5480E-6	-3.522163E-6	-3.522202E-6	-3.513927E-6	-3.514090E-6	-3.538432E-6	  -19.9982	    9.9172	    3.6281	  -31.3553	
 -640.0000	-3.5805E-6	-3.5670E-6	-3.5880E-6	-3.5950E-6	-3.5720E-6	-3.566592E-6	-3.562720E-6	-3.563331E-6	-3.567549E-6	-3.572767E-6	  -20.0059	    9.8229	    3.6101	  -31.4726	
 -650.0000	-3.5553E-6	-3.5480E-6	-3.5670E-6	-3.5510E-6	-3.5550E-6	-3.555761E-6	-3.571159E-6	-3.549800E-6	-3.546430E-6	-3.555657E-6	  -20.0008	    9.8229	    3.6116	  -31.4681	
 -660.0000	-3.5605E-6	-3.5510E-6	-3.5630E-6	-3.5580E-6	-3.5700E-6	-3.574414E-6	-3.558307E-6	-3.577717E-6	-3.580910E-6	-3.580721E-6	  -20.0008	    9.8365	    3.5974	  -31.4995	
 -670.0000	-3.6177E-6	-3.6350E-6	-3.6310E-6	-3.6150E-6	-3.5900E-6	-3.596691E-6	-3.588820E-6	-3.601529E-6	-3.602625E-6	-3.593792E-6	  -19.9906	    9.8656	    3.5958	  -31.4839	
 -680.0000	-3.6140E-6	-3.6270E-6	-3.6150E-6	-3.6160E-6	-3.5980E-6	-3.605018E-6	-3.598776E-6	-3.599828E-6	-3.609138E-6	-3.612331E-6	  -19.9957	    9.7365	    3.5810	  -31.6165	
 -690.0000	-3.6347E-6	-3.6000E-6	-3.6300E-6	-3.6580E-6	-3.6510E-6	-3.614160E-6	-3.627406E-6	-3.610100E-6	-3.595522E-6	-3.623614E-6	  -19.9982	    9.7365	    3.5860	  -31.6019	
 -700.0000	-3.6993E-6	-3.6900E-6	-3.7020E-6	-3.6940E-6	-3.7110E-6	-3.696547E-6	-3.694509E-6	-3.683667E-6	-3.700548E-6	-3.707464E-6	  -20.0033	    9.8180	    3.5867	  -31.5434	
 -710.0000	-3.7450E-6	-3.7600E-6	-3.7370E-6	-3.7480E-6	-3.7350E-6	-3.712389E-6	-3.726252E-6	-3.718929E-6	-3.709938E-6	-3.694436E-6	  -20.0059	    9.8499	    3.5816	  -31.5359	
 -720.0000	-3.7355E-6	-3.7110E-6	-3.7260E-6	-3.7420E-6	-3.7630E-6	-3.774744E-6	-3.764487E-6	-3.745984E-6	-3.781379E-6	-3.807128E-6	  -20.0135	    9.8644	    3.5519	  -31.6121	
 -730.0000	-3.7790E-6	-3.8140E-6	-3.7850E-6	-3.7540E-6	-3.7630E-6	-3.753731E-6	-3.765415E-6	-3.762503E-6	-3.749477E-6	-3.737527E-6	  -20.0160	    9.8644	    3.5579	  -31.5946	
 -740.0000	-3.7715E-6	-3.7670E-6	-3.7850E-6	-3.7740E-6	-3.7600E-6	-3.819728E-6	-3.810929E-6	-3.806576E-6	-3.821016E-6	-3.840389E-6	  -20.0186	    9.7890	    3.5601	  -31.6405	
 -750.0000	-3.8250E-6	-3.8240E-6	-3.8050E-6	-3.8360E-6	-3.8350E-6	-3.835516E-6	-3.825147E-6	-3.825001E-6	-3.844909E-6	-3.847008E-6	  -20.0160	    9.8864	    3.5731	  -31.5353	
 -760.0000	-3.8188E-6	-3.8200E-6	-3.8110E-6	-3.8130E-6	-3.8310E-6	-3.841216E-6	-3.829105E-6	-3.838641E-6	-3.853405E-6	-3.843713E-6	  -20.0160	    9.8176	    3.6028	  -31.4972	
 -770.0000	-3.8963E-6	-3.8950E-6	-3.8910E-6	-3.8950E-6	-3.9040E-6	-3.881368E-6	-3.884488E-6	-3.886740E-6	-3.868845E-6	-3.885399E-6	  -20.0135	    9.7857	    3.6082	  -31.5039	
 -780.0000	-3.8620E-6	-3.8850E-6	-3.8720E-6	-3.8490E-6	-3.8420E-6	-3.867833E-6	-3.864144E-6	-3.859110E-6	-3.872125E-6	-3.875953E-6	  -20.0160	    9.7226	    3.6056	  -31.5551	
 -790.0000	-3.8995E-6	-3.8960E-6	-3.9080E-6	-3.9160E-6	-3.8780E-6	-3.891125E-6	-3.883373E-6	-3.895354E-6	-3.892918E-6	-3.892855E-6	  -19.9982	    9.7271	    3.6075	  -31.5465	
 -800.0000	-3.8862E-6	-3.8740E-6	-3.8810E-6	-3.8890E-6	-3.9010E-6	-3.917034E-6	-3.909970E-6	-3.926940E-6	-3.917965E-6	-3.913262E-6	  -20.0059	    9.7614	    3.5961	  -31.5554	
 -810.0000	-3.9440E-6	-3.9310E-6	-3.9510E-6	-3.9600E-6	-3.9340E-6	-3.948849E-6	-3.931234E-6	-3.948821E-6	-3.961569E-6	-3.953774E-6	  -20.0008	    9.6929	    3.5911	  -31.6176	
 -820.0000	-3.9658E-6	-3.9300E-6	-3.9810E-6	-3.9570E-6	-3.9950E-6	-4.018145E-6	-4.032696E-6	-4.035240E-6	-4.018991E-6	-3.985655E-6	  -20.0008	    9.7532	    3.5759	  -31.6196	
 -830.0000	-4.0312E-6	-4.0020E-6	-4.0360E-6	-4.0580E-6	-4.0290E-6	-4.043892E-6	-4.043930E-6	-4.045989E-6	-4.049019E-6	-4.036632E-6	  -19.9982	    9.7318	    3.5604	  -31.6794	
 -840.0000	-3.9780E-6	-3.9950E-6	-3.9810E-6	-3.9620E-6	-3.9740E-6	-3.995390E-6	-3.973717E-6	-3.989298E-6	-4.007753E-6	-4.010793E-6	  -20.0033	    9.7238	    3.5636	  -31.6757	
 -850.0000	-4.0300E-6	-4.0330E-6	-4.0180E-6	-4.0260E-6	-4.0430E-6	-4.048807E-6	-4.054527E-6	-4.055977E-6	-4.047110E-6	-4.037612E-6	  -20.0008	    9.7660	    3.5655	  -31.6409	
 -860.0000	-4.0412E-6	-4.0280E-6	-4.0370E-6	-4.0380E-6	-4.0620E-6	-4.058552E-6	-4.068068E-6	-4.056766E-6	-4.049985E-6	-4.059390E-6	  -20.0008	    9.7783	    3.5386	  -31.7107	
 -870.0000	-4.1237E-6	-4.1080E-6	-4.1290E-6	-4.1360E-6	-4.1220E-6	-4.130551E-6	-4.145669E-6	-4.141985E-6	-4.127466E-6	-4.107085E-6	  -19.9982	    9.7995	    3.5307	  -31.7191	
 -880.0000	-4.0563E-6	-4.0550E-6	-4.0480E-6	-4.0520E-6	-4.0700E-6	-4.081111E-6	-4.081262E-6	-4.060541E-6	-4.074417E-6	-4.108223E-6	  -19.9982	    9.8072	    3.5364	  -31.6971	
 -890.0000	-4.1263E-6	-4.1370E-6	-4.1100E-6	-4.1200E-6	-4.1380E-6	-4.101755E-6	-4.122967E-6	-4.108360E-6	-4.094425E-6	-4.081268E-6	  -20.0008	    9.8312	    3.5386	  -31.6740	
 -900.0000	-4.1260E-6	-4.1170E-6	-4.1350E-6	-4.1300E-6	-4.1220E-6	-4.146416E-6	-4.149618E-6	-4.146440E-6	-4.133540E-6	-4.156065E-6	  -20.0008	    9.7025	    3.5436	  -31.7486	
 -910.0000	-4.1513E-6	-4.1470E-6	-4.1500E-6	-4.1590E-6	-4.1490E-6	-4.137363E-6	-4.161011E-6	-4.131684E-6	-4.122221E-6	-4.134538E-6	  -20.0059	    9.7190	    3.5531	  -31.7094	
 -920.0000	-4.2150E-6	-4.2010E-6	-4.2360E-6	-4.2240E-6	-4.1990E-6	-4.205954E-6	-4.203956E-6	-4.209611E-6	-4.210139E-6	-4.200111E-6	  -20.0059	    9.6729	    3.5395	  -31.7811	
 -930.0000	-4.2493E-6	-4.2570E-6	-4.2540E-6	-4.2490E-6	-4.2370E-6	-4.225235E-6	-4.217337E-6	-4.215425E-6	-4.235644E-6	-4.232532E-6	  -20.0084	    9.6171	    3.5481	  -31.7949	
 -940.0000	-4.2837E-6	-4.2750E-6	-4.2820E-6	-4.2830E-6	-4.2950E-6	-4.282728E-6	-4.287335E-6	-4.283998E-6	-4.272181E-6	-4.287397E-6	  -20.0084	    9.6171	    3.5563	  -31.7710	
 -950.0000	-4.3345E-6	-4.3650E-6	-4.3410E-6	-4.3020E-6	-4.3300E-6	-4.325798E-6	-4.347564E-6	-4.324580E-6	-4.309157E-6	-4.321890E-6	  -20.0109	    9.6708	    3.5614	  -31.7190	
 -960.0000	-4.3660E-6	-4.3830E-6	-4.3750E-6	-4.3600E-6	-4.3460E-6	-4.374695E-6	-4.338854E-6	-4.353170E-6	-4.384382E-6	-4.422373E-6	  -20.0084	    9.7354	    3.5509	  -31.7045	
 -970.0000	-4.4252E-6	-4.4620E-6	-4.4280E-6	-4.4000E-6	-4.4110E-6	-4.421685E-6	-4.407796E-6	-4.435552E-6	-4.432778E-6	-4.410615E-6	  -20.0109	    9.6470	    3.5566	  -31.7493	
 -980.0000	-4.4222E-6	-4.4310E-6	-4.4050E-6	-4.4220E-6	-4.4310E-6	-4.401066E-6	-4.400008E-6	-4.393249E-6	-4.402466E-6	-4.408541E-6	  -20.0033	    9.6470	    3.5769	  -31.6906	
 -990.0000	-4.4202E-6	-4.4330E-6	-4.4060E-6	-4.3970E-6	-4.4450E-6	-4.456710E-6	-4.461730E-6	-4.469079E-6	-4.444808E-6	-4.451224E-6	  -20.0033	    9.6083	    3.5705	  -31.7358	
-1000.0000	-4.4928E-6	-4.4760E-6	-4.4740E-6	-4.5000E-6	-4.5210E-6	-4.560804E-6	-4.553348E-6	-4.554289E-6	-4.551489E-6	-4.584091E-6	  -19.9982	    9.6534	    3.5715	  -31.7017	
