GCD Test
Bias: 5000.000000
IV_36696_039_PSS_HM_XX_DIODEHALFPSTOP_GRConnected_Irradiated
Date/Time: 9/20/2021 4:45:50 PM
Sensor Name: DIODEHALFPSTOP
Type: P
Annealing Status: Irradiated and Annealed for 80min at 60C
Environment: -20C
Tester: Andrew Kent

Time Delay per Ramp Step (s): 1.000

CV Time Delay per Measurement (s) :0.500

AC Voltage (V): 0.500

Current Number of measurements per voltage: 4.000

IV Time Delay per Measurement (s) :0.000


BiasVoltage	Total Current_Avg	Total Current_0	Total Current_1	Total Current_2	Total Current_3	Bias Current_Avg	Bias Current_0	Bias Current_1	Bias Current_2	Bias Current_3	Temperature	Air_Temp	Humidity	Dewpoint	
  -10.0000	-4.0040E-7	-4.0110E-7	-4.0010E-7	-3.9940E-7	-4.0100E-7	-2.728143E-7	-2.727640E-7	-2.727949E-7	-2.728336E-7	-2.728647E-7	  -20.0084	    9.6683	    5.3871	  -27.3495	
  -20.0000	-5.5027E-7	-5.5110E-7	-5.5020E-7	-5.4920E-7	-5.5060E-7	-3.775965E-7	-3.777284E-7	-3.776090E-7	-3.775826E-7	-3.774661E-7	  -20.0109	    9.6790	    5.3586	  -27.3988	
  -30.0000	-6.6217E-7	-6.6280E-7	-6.6230E-7	-6.6190E-7	-6.6170E-7	-4.577458E-7	-4.578776E-7	-4.577481E-7	-4.576750E-7	-4.576823E-7	  -20.0033	    9.6385	    5.3599	  -27.4256	
  -40.0000	-7.5643E-7	-7.5750E-7	-7.5700E-7	-7.5590E-7	-7.5530E-7	-5.242998E-7	-5.244262E-7	-5.243505E-7	-5.241948E-7	-5.242276E-7	  -19.9982	    9.6805	    5.3435	  -27.4283	
  -50.0000	-8.3900E-7	-8.3960E-7	-8.4000E-7	-8.3830E-7	-8.3810E-7	-5.850744E-7	-5.852218E-7	-5.852051E-7	-5.850096E-7	-5.848610E-7	  -19.9982	    9.6890	    5.2644	  -27.5827	
  -60.0000	-9.1425E-7	-9.1470E-7	-9.1410E-7	-9.1400E-7	-9.1420E-7	-6.392030E-7	-6.394267E-7	-6.391349E-7	-6.390086E-7	-6.392419E-7	  -19.9906	    9.6682	    5.2919	  -27.5417	
  -70.0000	-9.7905E-7	-9.7890E-7	-9.7960E-7	-9.7940E-7	-9.7830E-7	-6.866955E-7	-6.867580E-7	-6.866348E-7	-6.866044E-7	-6.867850E-7	  -19.9880	    9.6676	    5.3814	  -27.3614	
  -80.0000	-1.0410E-6	-1.0410E-6	-1.0420E-6	-1.0400E-6	-1.0410E-6	-7.314213E-7	-7.310722E-7	-7.312836E-7	-7.315492E-7	-7.317801E-7	  -19.9855	    9.6243	    5.4760	  -27.2048	
  -90.0000	-1.0983E-6	-1.0990E-6	-1.0980E-6	-1.0990E-6	-1.0970E-6	-7.727016E-7	-7.726346E-7	-7.725098E-7	-7.727744E-7	-7.728875E-7	  -19.9830	    9.6815	    5.5092	  -27.0979	
 -100.0000	-1.1495E-6	-1.1490E-6	-1.1490E-6	-1.1510E-6	-1.1490E-6	-8.111773E-7	-8.110659E-7	-8.109114E-7	-8.111600E-7	-8.115718E-7	  -19.9830	    9.6655	    5.4681	  -27.1905	
 -110.0000	-1.2023E-6	-1.2030E-6	-1.2030E-6	-1.2020E-6	-1.2010E-6	-8.492854E-7	-8.495218E-7	-8.493819E-7	-8.493084E-7	-8.489296E-7	  -19.9855	    9.6554	    5.4051	  -27.3228	
 -120.0000	-1.2525E-6	-1.2530E-6	-1.2520E-6	-1.2520E-6	-1.2530E-6	-8.851163E-7	-8.855243E-7	-8.852599E-7	-8.850553E-7	-8.846259E-7	  -19.9931	    9.6584	    5.3517	  -27.4278	
 -130.0000	-1.2980E-6	-1.2980E-6	-1.2990E-6	-1.2970E-6	-1.2980E-6	-9.192586E-7	-9.191516E-7	-9.193990E-7	-9.194274E-7	-9.190562E-7	  -20.0008	    9.6681	    5.4257	  -27.2726	
 -140.0000	-1.3420E-6	-1.3430E-6	-1.3420E-6	-1.3420E-6	-1.3410E-6	-9.505233E-7	-9.499036E-7	-9.501770E-7	-9.507824E-7	-9.512303E-7	  -20.0084	    9.6632	    5.5651	  -27.0019	
 -150.0000	-1.3875E-6	-1.3870E-6	-1.3870E-6	-1.3870E-6	-1.3890E-6	-9.842494E-7	-9.841586E-7	-9.842507E-7	-9.842437E-7	-9.843445E-7	  -20.0084	    9.6222	    5.5946	  -26.9747	
 -160.0000	-1.4305E-6	-1.4320E-6	-1.4300E-6	-1.4290E-6	-1.4310E-6	-1.015238E-6	-1.015366E-6	-1.015450E-6	-1.015287E-6	-1.014850E-6	  -20.0084	    9.6468	    5.5844	  -26.9764	
 -170.0000	-1.4720E-6	-1.4740E-6	-1.4720E-6	-1.4710E-6	-1.4710E-6	-1.045240E-6	-1.044605E-6	-1.044914E-6	-1.045538E-6	-1.045905E-6	  -20.0084	    9.6616	    5.4949	  -27.1403	
 -180.0000	-1.5105E-6	-1.5100E-6	-1.5120E-6	-1.5100E-6	-1.5100E-6	-1.074648E-6	-1.074048E-6	-1.074486E-6	-1.074807E-6	-1.075252E-6	  -20.0109	    9.6772	    5.4798	  -27.1589	
 -190.0000	-1.5525E-6	-1.5540E-6	-1.5530E-6	-1.5510E-6	-1.5520E-6	-1.105880E-6	-1.105187E-6	-1.105910E-6	-1.106270E-6	-1.106152E-6	  -20.0109	    9.6778	    5.6682	  -26.7924	
 -200.0000	-1.5957E-6	-1.5960E-6	-1.5950E-6	-1.5950E-6	-1.5970E-6	-1.134846E-6	-1.135201E-6	-1.134845E-6	-1.134857E-6	-1.134479E-6	  -20.0135	    9.6794	    5.7812	  -26.5772	
 -210.0000	-1.6323E-6	-1.6330E-6	-1.6320E-6	-1.6310E-6	-1.6330E-6	-1.161604E-6	-1.161967E-6	-1.161723E-6	-1.161408E-6	-1.161319E-6	  -20.0160	    9.6709	    5.7849	  -26.5763	
 -220.0000	-1.6725E-6	-1.6720E-6	-1.6740E-6	-1.6720E-6	-1.6720E-6	-1.190610E-6	-1.190791E-6	-1.190937E-6	-1.190756E-6	-1.189957E-6	  -20.0084	    9.6709	    5.8618	  -26.4328	
 -230.0000	-1.7050E-6	-1.7070E-6	-1.7040E-6	-1.7040E-6	-1.7050E-6	-1.213494E-6	-1.212981E-6	-1.213106E-6	-1.213750E-6	-1.214141E-6	  -20.0059	    9.6516	    5.9304	  -26.3203	
 -240.0000	-1.7422E-6	-1.7440E-6	-1.7420E-6	-1.7420E-6	-1.7410E-6	-1.239621E-6	-1.239674E-6	-1.239468E-6	-1.239788E-6	-1.239553E-6	  -20.0033	    9.6628	    5.9485	  -26.2790	
 -250.0000	-1.7738E-6	-1.7730E-6	-1.7730E-6	-1.7750E-6	-1.7740E-6	-1.264993E-6	-1.264823E-6	-1.265005E-6	-1.265194E-6	-1.264948E-6	  -19.9957	    9.6587	    5.9016	  -26.3680	
 -260.0000	-1.8130E-6	-1.8140E-6	-1.8110E-6	-1.8120E-6	-1.8150E-6	-1.292358E-6	-1.292922E-6	-1.292247E-6	-1.291985E-6	-1.292278E-6	  -19.9957	    9.6522	    5.8017	  -26.5585	
 -270.0000	-1.8452E-6	-1.8460E-6	-1.8450E-6	-1.8460E-6	-1.8440E-6	-1.314510E-6	-1.314325E-6	-1.314437E-6	-1.314708E-6	-1.314571E-6	  -19.9957	    9.6642	    5.7922	  -26.5675	
 -280.0000	-1.8782E-6	-1.8790E-6	-1.8780E-6	-1.8770E-6	-1.8790E-6	-1.338949E-6	-1.339242E-6	-1.338704E-6	-1.338724E-6	-1.339126E-6	  -19.9880	    9.6499	    5.7207	  -26.7128	
 -290.0000	-1.9140E-6	-1.9130E-6	-1.9150E-6	-1.9140E-6	-1.9140E-6	-1.365311E-6	-1.364649E-6	-1.365242E-6	-1.365625E-6	-1.365728E-6	  -19.9830	    9.6331	    5.6546	  -26.8511	
 -300.0000	-1.9500E-6	-1.9490E-6	-1.9490E-6	-1.9520E-6	-1.9500E-6	-1.389787E-6	-1.390388E-6	-1.389529E-6	-1.389549E-6	-1.389681E-6	  -19.9855	    9.6282	    5.6290	  -26.9038	
 -310.0000	-1.9820E-6	-1.9820E-6	-1.9830E-6	-1.9810E-6	-1.9820E-6	-1.414487E-6	-1.414223E-6	-1.414458E-6	-1.414495E-6	-1.414773E-6	  -19.9906	    9.6692	    5.6205	  -26.8904	
 -320.0000	-2.0125E-6	-2.0140E-6	-2.0120E-6	-2.0120E-6	-2.0120E-6	-1.435932E-6	-1.436376E-6	-1.435881E-6	-1.435568E-6	-1.435903E-6	  -19.9931	    9.6526	    5.6363	  -26.8721	
 -330.0000	-2.0465E-6	-2.0450E-6	-2.0450E-6	-2.0470E-6	-2.0490E-6	-1.461408E-6	-1.462356E-6	-1.462023E-6	-1.460979E-6	-1.460275E-6	  -19.9906	    9.6755	    5.6537	  -26.8219	
 -340.0000	-2.0785E-6	-2.0770E-6	-2.0780E-6	-2.0800E-6	-2.0790E-6	-1.484661E-6	-1.485067E-6	-1.485035E-6	-1.484446E-6	-1.484094E-6	  -20.0008	    9.6724	    5.6866	  -26.7613	
 -350.0000	-2.1073E-6	-2.1070E-6	-2.1060E-6	-2.1080E-6	-2.1080E-6	-1.504042E-6	-1.504243E-6	-1.504238E-6	-1.503939E-6	-1.503749E-6	  -20.0008	    9.6698	    5.8083	  -26.5333	
 -360.0000	-2.1383E-6	-2.1390E-6	-2.1370E-6	-2.1390E-6	-2.1380E-6	-1.525254E-6	-1.525160E-6	-1.525240E-6	-1.525133E-6	-1.525485E-6	  -20.0008	    9.6684	    5.8017	  -26.5467	
 -370.0000	-2.1693E-6	-2.1700E-6	-2.1710E-6	-2.1680E-6	-2.1680E-6	-1.544292E-6	-1.544943E-6	-1.544177E-6	-1.543898E-6	-1.544148E-6	  -20.0008	    9.6739	    5.8852	  -26.3873	
 -380.0000	-2.1990E-6	-2.1980E-6	-2.1980E-6	-2.2000E-6	-2.2000E-6	-1.569710E-6	-1.568780E-6	-1.569442E-6	-1.570117E-6	-1.570501E-6	  -19.9957	    9.6494	    5.8567	  -26.4580	
 -390.0000	-2.2298E-6	-2.2310E-6	-2.2310E-6	-2.2290E-6	-2.2280E-6	-1.587415E-6	-1.588057E-6	-1.587484E-6	-1.586997E-6	-1.587124E-6	  -19.9957	    9.6726	    5.7574	  -26.6268	
 -400.0000	-2.2555E-6	-2.2560E-6	-2.2540E-6	-2.2560E-6	-2.2560E-6	-1.611709E-6	-1.609230E-6	-1.610863E-6	-1.612679E-6	-1.614066E-6	  -20.0033	    9.6952	    5.7163	  -26.6882	
 -410.0000	-2.2903E-6	-2.2900E-6	-2.2910E-6	-2.2900E-6	-2.2900E-6	-1.629627E-6	-1.630707E-6	-1.629743E-6	-1.629036E-6	-1.629023E-6	  -20.0033	    9.6788	    5.6828	  -26.7639	
 -420.0000	-2.3125E-6	-2.3120E-6	-2.3130E-6	-2.3140E-6	-2.3110E-6	-1.647979E-6	-1.647668E-6	-1.647375E-6	-1.648303E-6	-1.648572E-6	  -20.0033	    9.6247	    5.6044	  -26.9539	
 -430.0000	-2.3375E-6	-2.3390E-6	-2.3390E-6	-2.3360E-6	-2.3360E-6	-1.664271E-6	-1.664452E-6	-1.664377E-6	-1.664105E-6	-1.664149E-6	  -20.0008	    9.6429	    5.5696	  -27.0080	
 -440.0000	-2.3635E-6	-2.3630E-6	-2.3640E-6	-2.3650E-6	-2.3620E-6	-1.687033E-6	-1.683374E-6	-1.686190E-6	-1.688701E-6	-1.689866E-6	  -20.0008	    9.6720	    5.5784	  -26.9697	
 -450.0000	-2.3937E-6	-2.3950E-6	-2.3940E-6	-2.3920E-6	-2.3940E-6	-1.704626E-6	-1.705188E-6	-1.704734E-6	-1.704020E-6	-1.704563E-6	  -20.0008	    9.6738	    5.6053	  -26.9163	
 -460.0000	-2.4140E-6	-2.4130E-6	-2.4140E-6	-2.4140E-6	-2.4150E-6	-1.720650E-6	-1.720348E-6	-1.720702E-6	-1.720559E-6	-1.720992E-6	  -20.0008	    9.6517	    5.5601	  -27.0201	
 -470.0000	-2.4407E-6	-2.4410E-6	-2.4410E-6	-2.4410E-6	-2.4400E-6	-1.737641E-6	-1.738030E-6	-1.737850E-6	-1.737621E-6	-1.737063E-6	  -19.9957	    9.6873	    5.5870	  -26.9420	
 -480.0000	-2.4630E-6	-2.4630E-6	-2.4630E-6	-2.4630E-6	-2.4630E-6	-1.754137E-6	-1.754238E-6	-1.754055E-6	-1.753896E-6	-1.754357E-6	  -20.0008	    9.6569	    5.6382	  -26.8652	
 -490.0000	-2.4870E-6	-2.4890E-6	-2.4870E-6	-2.4850E-6	-2.4870E-6	-1.771761E-6	-1.771528E-6	-1.771973E-6	-1.771972E-6	-1.771572E-6	  -20.0033	    9.6905	    5.6853	  -26.7506	
 -500.0000	-2.5133E-6	-2.5120E-6	-2.5120E-6	-2.5140E-6	-2.5150E-6	-1.790937E-6	-1.791463E-6	-1.790955E-6	-1.790686E-6	-1.790643E-6	  -20.0059	    9.6697	    5.6841	  -26.7682	
 -510.0000	-2.5377E-6	-2.5390E-6	-2.5350E-6	-2.5370E-6	-2.5400E-6	-1.808571E-6	-1.809205E-6	-1.808817E-6	-1.808277E-6	-1.807987E-6	  -20.0033	    9.6697	    5.6543	  -26.8250	
 -520.0000	-2.5620E-6	-2.5640E-6	-2.5610E-6	-2.5620E-6	-2.5610E-6	-1.823743E-6	-1.823426E-6	-1.824358E-6	-1.824056E-6	-1.823130E-6	  -20.0109	    9.6560	    5.6091	  -26.9220	
 -530.0000	-2.5838E-6	-2.5830E-6	-2.5820E-6	-2.5840E-6	-2.5860E-6	-1.839012E-6	-1.839558E-6	-1.838809E-6	-1.838824E-6	-1.838859E-6	  -20.0084	    9.6590	    5.6034	  -26.9308	
 -540.0000	-2.6062E-6	-2.6070E-6	-2.6070E-6	-2.6060E-6	-2.6050E-6	-1.855309E-6	-1.855343E-6	-1.855634E-6	-1.855389E-6	-1.854869E-6	  -20.0109	    9.6721	    5.5585	  -27.0083	
 -550.0000	-2.6300E-6	-2.6300E-6	-2.6290E-6	-2.6310E-6	-2.6300E-6	-1.869935E-6	-1.869855E-6	-1.869876E-6	-1.870018E-6	-1.869990E-6	  -20.0059	    9.6805	    5.4630	  -27.1896	
 -560.0000	-2.6503E-6	-2.6500E-6	-2.6490E-6	-2.6510E-6	-2.6510E-6	-1.885912E-6	-1.885648E-6	-1.885739E-6	-1.886124E-6	-1.886135E-6	  -20.0033	    9.6779	    5.3030	  -27.5121	
 -570.0000	-2.6752E-6	-2.6730E-6	-2.6760E-6	-2.6750E-6	-2.6770E-6	-1.905097E-6	-1.905273E-6	-1.904772E-6	-1.905477E-6	-1.904866E-6	  -20.0059	    9.7273	    5.2521	  -27.5803	
 -580.0000	-2.6973E-6	-2.6980E-6	-2.6980E-6	-2.6970E-6	-2.6960E-6	-1.918865E-6	-1.918756E-6	-1.918759E-6	-1.918988E-6	-1.918957E-6	  -20.0084	    9.6854	    5.3248	  -27.4625	
 -590.0000	-2.7190E-6	-2.7190E-6	-2.7200E-6	-2.7190E-6	-2.7180E-6	-1.932701E-6	-1.932159E-6	-1.932537E-6	-1.933071E-6	-1.933036E-6	  -20.0135	    9.6969	    5.4605	  -27.1827	
 -600.0000	-2.7387E-6	-2.7400E-6	-2.7370E-6	-2.7370E-6	-2.7410E-6	-1.949674E-6	-1.950138E-6	-1.949830E-6	-1.949770E-6	-1.948959E-6	  -20.0160	    9.6896	    5.5085	  -27.0933	
 -610.0000	-2.7642E-6	-2.7630E-6	-2.7660E-6	-2.7640E-6	-2.7640E-6	-1.965581E-6	-1.965968E-6	-1.965980E-6	-1.965531E-6	-1.964846E-6	  -20.0109	    9.6889	    5.5329	  -27.0461	
 -620.0000	-2.7905E-6	-2.7880E-6	-2.7890E-6	-2.7930E-6	-2.7920E-6	-1.985993E-6	-1.986045E-6	-1.986243E-6	-1.985751E-6	-1.985931E-6	  -20.0059	    9.6986	    5.4747	  -27.1534	
 -630.0000	-2.8107E-6	-2.8140E-6	-2.8110E-6	-2.8090E-6	-2.8090E-6	-1.997147E-6	-1.997377E-6	-1.997224E-6	-1.996988E-6	-1.996997E-6	  -20.0059	    9.6931	    5.5038	  -27.1001	
 -640.0000	-2.8268E-6	-2.8280E-6	-2.8270E-6	-2.8270E-6	-2.8250E-6	-2.010739E-6	-2.009532E-6	-2.009861E-6	-2.011326E-6	-2.012238E-6	  -19.9982	    9.7098	    5.6183	  -26.8652	
 -650.0000	-2.8522E-6	-2.8550E-6	-2.8520E-6	-2.8500E-6	-2.8520E-6	-2.026782E-6	-2.027721E-6	-2.028008E-6	-2.025984E-6	-2.025416E-6	  -19.9931	    9.7265	    5.5553	  -26.9749	
 -660.0000	-2.8743E-6	-2.8730E-6	-2.8710E-6	-2.8750E-6	-2.8780E-6	-2.044597E-6	-2.045619E-6	-2.045270E-6	-2.044182E-6	-2.043315E-6	  -19.9982	    9.7248	    5.5006	  -27.0833	
 -670.0000	-2.8963E-6	-2.8960E-6	-2.8960E-6	-2.8950E-6	-2.8980E-6	-2.060716E-6	-2.060217E-6	-2.060700E-6	-2.060650E-6	-2.061299E-6	  -20.0008	    9.7346	    5.5297	  -27.0191	
 -680.0000	-2.9157E-6	-2.9170E-6	-2.9150E-6	-2.9160E-6	-2.9150E-6	-2.072245E-6	-2.072074E-6	-2.072407E-6	-2.072471E-6	-2.072026E-6	  -19.9957	    9.6930	    5.5873	  -26.9372	
 -690.0000	-2.9363E-6	-2.9360E-6	-2.9350E-6	-2.9350E-6	-2.9390E-6	-2.092354E-6	-2.091829E-6	-2.092089E-6	-2.092648E-6	-2.092849E-6	  -19.9931	    9.6844	    5.5515	  -27.0129	
 -700.0000	-2.9620E-6	-2.9630E-6	-2.9620E-6	-2.9600E-6	-2.9630E-6	-2.105605E-6	-2.105228E-6	-2.105583E-6	-2.105798E-6	-2.105809E-6	  -19.9804	    9.7087	    5.5781	  -26.9437	
 -710.0000	-2.9805E-6	-2.9820E-6	-2.9800E-6	-2.9790E-6	-2.9810E-6	-2.117084E-6	-2.117600E-6	-2.116970E-6	-2.116877E-6	-2.116888E-6	  -19.9830	    9.6786	    5.5288	  -27.0616	
 -720.0000	-3.0020E-6	-3.0040E-6	-3.0030E-6	-3.0010E-6	-3.0000E-6	-2.130001E-6	-2.130248E-6	-2.129764E-6	-2.130171E-6	-2.129822E-6	  -19.9804	    9.6584	    5.5262	  -27.0813	
 -730.0000	-3.0227E-6	-3.0220E-6	-3.0230E-6	-3.0240E-6	-3.0220E-6	-2.146865E-6	-2.146231E-6	-2.146650E-6	-2.146730E-6	-2.147849E-6	  -19.9804	    9.6801	    5.5686	  -26.9828	
 -740.0000	-3.0450E-6	-3.0470E-6	-3.0460E-6	-3.0450E-6	-3.0420E-6	-2.163774E-6	-2.163136E-6	-2.163396E-6	-2.164263E-6	-2.164300E-6	  -19.9728	    9.6928	    5.5911	  -26.9301	
 -750.0000	-3.0673E-6	-3.0670E-6	-3.0660E-6	-3.0670E-6	-3.0690E-6	-2.178128E-6	-2.178703E-6	-2.177497E-6	-2.177749E-6	-2.178565E-6	  -19.9779	    9.6926	    5.5825	  -26.9467	
 -760.0000	-3.0935E-6	-3.0920E-6	-3.0950E-6	-3.0940E-6	-3.0930E-6	-2.197278E-6	-2.197677E-6	-2.198012E-6	-2.196993E-6	-2.196429E-6	  -19.9804	    9.6797	    5.5740	  -26.9727	
 -770.0000	-3.1105E-6	-3.1100E-6	-3.1100E-6	-3.1110E-6	-3.1110E-6	-2.210932E-6	-2.210955E-6	-2.211582E-6	-2.210898E-6	-2.210293E-6	  -19.9880	    9.6741	    5.5743	  -26.9762	
 -780.0000	-3.1330E-6	-3.1360E-6	-3.1340E-6	-3.1310E-6	-3.1310E-6	-2.224876E-6	-2.224588E-6	-2.224942E-6	-2.224934E-6	-2.225039E-6	  -19.9931	    9.7012	    5.5291	  -27.0446	
 -790.0000	-3.1550E-6	-3.1540E-6	-3.1550E-6	-3.1560E-6	-3.1550E-6	-2.240495E-6	-2.241116E-6	-2.239949E-6	-2.239957E-6	-2.240957E-6	  -20.0059	    9.7255	    5.4889	  -27.1058	
 -800.0000	-3.1750E-6	-3.1740E-6	-3.1760E-6	-3.1760E-6	-3.1740E-6	-2.254982E-6	-2.254943E-6	-2.254553E-6	-2.255207E-6	-2.255224E-6	  -20.0135	    9.7405	    5.4513	  -27.1692	
 -810.0000	-3.1990E-6	-3.2000E-6	-3.2000E-6	-3.1980E-6	-3.1980E-6	-2.270230E-6	-2.270970E-6	-2.269364E-6	-2.269632E-6	-2.270953E-6	  -20.0160	    9.7297	    5.3792	  -27.3209	
 -820.0000	-3.2200E-6	-3.2210E-6	-3.2180E-6	-3.2210E-6	-3.2200E-6	-2.282174E-6	-2.284834E-6	-2.281806E-6	-2.280875E-6	-2.281183E-6	  -20.0160	    9.7302	    5.3988	  -27.2812	
 -830.0000	-3.2413E-6	-3.2400E-6	-3.2420E-6	-3.2410E-6	-3.2420E-6	-2.302880E-6	-2.303731E-6	-2.303590E-6	-2.301709E-6	-2.302490E-6	  -20.0160	    9.7125	    5.4529	  -27.1865	
 -840.0000	-3.2677E-6	-3.2690E-6	-3.2670E-6	-3.2670E-6	-3.2680E-6	-2.318407E-6	-2.318531E-6	-2.318061E-6	-2.318226E-6	-2.318809E-6	  -20.0135	    9.7197	    5.4655	  -27.1562	
 -850.0000	-3.2895E-6	-3.2890E-6	-3.2890E-6	-3.2900E-6	-3.2900E-6	-2.333508E-6	-2.333815E-6	-2.332122E-6	-2.333763E-6	-2.334332E-6	  -20.0160	    9.7031	    5.4181	  -27.2623	
 -860.0000	-3.3185E-6	-3.3220E-6	-3.3190E-6	-3.3170E-6	-3.3160E-6	-2.351736E-6	-2.350681E-6	-2.352366E-6	-2.351829E-6	-2.352069E-6	  -20.0109	    9.7011	    5.6091	  -26.8891	
 -870.0000	-3.3402E-6	-3.3410E-6	-3.3410E-6	-3.3400E-6	-3.3390E-6	-2.364243E-6	-2.364615E-6	-2.364623E-6	-2.363737E-6	-2.363997E-6	  -20.0109	    9.7047	    5.7052	  -26.7023	
 -880.0000	-3.3593E-6	-3.3580E-6	-3.3590E-6	-3.3580E-6	-3.3620E-6	-2.379198E-6	-2.381118E-6	-2.379703E-6	-2.378935E-6	-2.377036E-6	  -20.0033	    9.6870	    5.9178	  -26.3176	
 -890.0000	-3.3923E-6	-3.3870E-6	-3.3910E-6	-3.3950E-6	-3.3960E-6	-2.403350E-6	-2.404931E-6	-2.404709E-6	-2.402913E-6	-2.400846E-6	  -20.0008	    9.6885	    5.9756	  -26.2105	
 -900.0000	-3.4173E-6	-3.4190E-6	-3.4160E-6	-3.4160E-6	-3.4180E-6	-2.417308E-6	-2.416560E-6	-2.416420E-6	-2.418418E-6	-2.417836E-6	  -19.9982	    9.7043	    5.8634	  -26.4055	
 -910.0000	-3.4423E-6	-3.4410E-6	-3.4430E-6	-3.4430E-6	-3.4420E-6	-2.434672E-6	-2.434471E-6	-2.435015E-6	-2.434697E-6	-2.434506E-6	  -19.9982	    9.7043	    5.8052	  -26.5140	
 -920.0000	-3.4685E-6	-3.4690E-6	-3.4670E-6	-3.4690E-6	-3.4690E-6	-2.452530E-6	-2.453222E-6	-2.454225E-6	-2.453121E-6	-2.449553E-6	  -19.9957	    9.7092	    5.7922	  -26.5347	
 -930.0000	-3.4973E-6	-3.4980E-6	-3.4980E-6	-3.4960E-6	-3.4970E-6	-2.472330E-6	-2.471706E-6	-2.471942E-6	-2.472624E-6	-2.473049E-6	  -19.9906	    9.7316	    5.7799	  -26.5415	
 -940.0000	-3.5255E-6	-3.5300E-6	-3.5260E-6	-3.5230E-6	-3.5230E-6	-2.482811E-6	-2.483900E-6	-2.483273E-6	-2.482138E-6	-2.481935E-6	  -19.9982	    9.7266	    5.9943	  -26.1486	
 -950.0000	-3.5475E-6	-3.5470E-6	-3.5460E-6	-3.5460E-6	-3.5510E-6	-2.504728E-6	-2.504582E-6	-2.505378E-6	-2.505031E-6	-2.503922E-6	  -19.9957	    9.7266	    6.0386	  -26.0683	
 -960.0000	-3.5865E-6	-3.5870E-6	-3.5880E-6	-3.5850E-6	-3.5860E-6	-2.526982E-6	-2.528980E-6	-2.527482E-6	-2.526186E-6	-2.525280E-6	  -19.9957	    9.6909	    5.9516	  -26.2526	
 -970.0000	-3.6137E-6	-3.6120E-6	-3.6120E-6	-3.6150E-6	-3.6160E-6	-2.543031E-6	-2.543947E-6	-2.543744E-6	-2.542857E-6	-2.541574E-6	  -19.9982	    9.7170	    5.8953	  -26.3371	
 -980.0000	-3.6412E-6	-3.6420E-6	-3.6410E-6	-3.6410E-6	-3.6410E-6	-2.560273E-6	-2.561740E-6	-2.560327E-6	-2.560506E-6	-2.558520E-6	  -19.9982	    9.7454	    5.8400	  -26.4190	
 -990.0000	-3.6653E-6	-3.6650E-6	-3.6650E-6	-3.6670E-6	-3.6640E-6	-2.575429E-6	-2.573821E-6	-2.575291E-6	-2.576222E-6	-2.576383E-6	  -20.0008	    9.7454	    5.8257	  -26.4455	
-1000.0000	-3.6970E-6	-3.6930E-6	-3.6980E-6	-3.6980E-6	-3.6990E-6	-2.597425E-6	-2.597169E-6	-2.596976E-6	-2.597045E-6	-2.598509E-6	  -19.9982	    9.7365	    5.7388	  -26.6155	
