GCD Test
Bias: 5000.000000
IV_36696_039_PSS_HM_XX_DIODE_Irradiated
Date/Time: 9/20/2021 1:38:46 PM
Sensor Name: DIODE
Type: P
Annealing Status: Irradiated and Annealed for 80min at 60C
Environment: -20C
Tester: Andrew Kent

Time Delay per Ramp Step (s): 1.000

CV Time Delay per Measurement (s) :0.500

AC Voltage (V): 0.500

Current Number of measurements per voltage: 4.000

IV Time Delay per Measurement (s) :0.000


BiasVoltage	Total Current_Avg	Total Current_0	Total Current_1	Total Current_2	Total Current_3	Bias Current_Avg	Bias Current_0	Bias Current_1	Bias Current_2	Bias Current_3	Temperature	Air_Temp	Humidity	Dewpoint	
  -10.0000	3.7975E-10	5.6100E-10	-4.8300E-10	6.5500E-10	7.8600E-10	-6.420768E-9	-6.866975E-9	-8.009816E-9	-5.097023E-9	-5.709258E-9	  -19.9473	    9.3601	    4.0848	  -30.5097	
  -20.0000	-2.7000E-11	-6.2200E-10	3.0000E-12	1.1600E-10	3.9500E-10	-6.122392E-9	-6.044208E-9	-6.276963E-9	-6.080584E-9	-6.087813E-9	  -19.9499	    9.4144	    4.0813	  -30.4803	
  -30.0000	-5.8575E-10	-7.3300E-10	-9.4500E-10	-4.5800E-10	-2.0700E-10	-6.507412E-9	-6.582305E-9	-6.453940E-9	-6.426910E-9	-6.566492E-9	  -19.9550	    9.3703	    4.0579	  -30.5716	
  -40.0000	-9.2550E-10	-1.5760E-9	-9.3000E-10	-8.3200E-10	-3.6400E-10	-6.843303E-9	-6.792510E-9	-6.822901E-9	-6.904388E-9	-6.853415E-9	  -19.9550	    9.3298	    4.0376	  -30.6524	
  -50.0000	-1.3005E-9	-8.9400E-10	-1.3190E-9	-1.3390E-9	-1.6500E-9	-6.958994E-9	-7.051400E-9	-7.049863E-9	-6.960431E-9	-6.774283E-9	  -19.9575	    9.3435	    4.0364	  -30.6460	
  -60.0000	-1.6792E-9	-2.0350E-9	-1.9430E-9	-1.6680E-9	-1.0710E-9	-7.215302E-9	-7.284265E-9	-7.190180E-9	-7.121143E-9	-7.265619E-9	  -19.9626	    9.3774	    4.0244	  -30.6534	
  -70.0000	-1.8930E-9	-2.1520E-9	-1.9160E-9	-1.5620E-9	-1.9420E-9	-7.493331E-9	-7.572130E-9	-7.537757E-9	-7.512388E-9	-7.351050E-9	  -19.9626	    9.3915	    4.0104	  -30.6796	
  -80.0000	-2.5065E-9	-2.7020E-9	-2.4600E-9	-2.5810E-9	-2.2830E-9	-7.521781E-9	-7.594249E-9	-7.741830E-9	-7.578820E-9	-7.172223E-9	  -19.9753	    9.3942	    3.9991	  -30.7074	
  -90.0000	-2.8395E-9	-2.8760E-9	-3.1890E-9	-2.6850E-9	-2.6080E-9	-7.804813E-9	-7.844551E-9	-7.761805E-9	-7.882189E-9	-7.730707E-9	  -19.9779	    9.4260	    3.9772	  -30.7422	
 -100.0000	-3.1762E-9	-3.1680E-9	-3.3620E-9	-3.1710E-9	-3.0040E-9	-8.223646E-9	-8.386768E-9	-8.529070E-9	-8.061058E-9	-7.917688E-9	  -19.9931	    9.3510	    3.9712	  -30.8107	
 -110.0000	-3.2963E-9	-2.9490E-9	-3.2730E-9	-3.2150E-9	-3.7480E-9	-8.560829E-9	-8.518657E-9	-8.499382E-9	-8.613688E-9	-8.611589E-9	  -20.0059	    9.3853	    3.9605	  -30.8149	
 -120.0000	-3.6202E-9	-3.7880E-9	-3.1790E-9	-3.6980E-9	-3.8160E-9	-8.726440E-9	-8.918392E-9	-8.501608E-9	-8.919939E-9	-8.565823E-9	  -20.0059	    9.3909	    3.9409	  -30.8628	
 -130.0000	-3.9902E-9	-3.8490E-9	-3.8050E-9	-3.9480E-9	-4.3590E-9	-9.118611E-9	-9.332959E-9	-9.157024E-9	-8.899272E-9	-9.085188E-9	  -20.0109	    9.3794	    3.9298	  -30.9001	
 -140.0000	-4.3287E-9	-4.9600E-9	-4.3430E-9	-4.2820E-9	-3.7300E-9	-9.636908E-9	-9.685700E-9	-9.364252E-9	-9.660921E-9	-9.836759E-9	  -20.0084	    9.3693	    3.9137	  -30.9501	
 -150.0000	-4.5825E-9	-4.6830E-9	-4.2260E-9	-4.7070E-9	-4.7140E-9	-1.006834E-8	-1.012451E-8	-1.024874E-8	-1.012772E-8	-9.772400E-9	  -20.0084	    9.3976	    3.8997	  -30.9673	
 -160.0000	-4.9685E-9	-4.6470E-9	-4.9450E-9	-4.9560E-9	-5.3260E-9	-1.023866E-8	-1.067271E-8	-1.017978E-8	-1.009459E-8	-1.000758E-8	  -20.0186	    9.4071	    3.9111	  -30.9303	
 -170.0000	-5.2830E-9	-5.6050E-9	-5.4790E-9	-4.8850E-9	-5.1630E-9	-1.146247E-8	-1.167144E-8	-1.137558E-8	-1.150565E-8	-1.129723E-8	  -20.0211	    9.3830	    3.8941	  -30.9928	
 -180.0000	-5.6148E-9	-5.9500E-9	-5.2850E-9	-5.5740E-9	-5.6500E-9	-1.198356E-8	-1.199994E-8	-1.197596E-8	-1.202693E-8	-1.193142E-8	  -20.0237	    9.3207	    3.8732	  -31.0924	
 -190.0000	-6.0800E-9	-5.6520E-9	-6.1880E-9	-6.0800E-9	-6.4000E-9	-1.236527E-8	-1.245356E-8	-1.246640E-8	-1.229620E-8	-1.224490E-8	  -20.0237	    9.3207	    3.8615	  -31.1239	
 -200.0000	-6.5490E-9	-6.5950E-9	-6.4310E-9	-6.8250E-9	-6.3450E-9	-1.290935E-8	-1.273124E-8	-1.348928E-8	-1.271578E-8	-1.270110E-8	  -20.0211	    9.3637	    3.8504	  -31.1237	
 -210.0000	-6.6490E-9	-7.0090E-9	-6.2200E-9	-6.6980E-9	-6.6690E-9	-1.298240E-8	-1.301411E-8	-1.292194E-8	-1.294009E-8	-1.305344E-8	  -20.0211	    9.3789	    3.8197	  -31.1962	
 -220.0000	-7.2435E-9	-7.2510E-9	-7.5690E-9	-7.0080E-9	-7.1460E-9	-1.333750E-8	-1.333230E-8	-1.334368E-8	-1.342882E-8	-1.324519E-8	  -20.0109	    9.3200	    3.8264	  -31.2194	
 -230.0000	-7.6323E-9	-7.8120E-9	-7.8170E-9	-7.4670E-9	-7.4330E-9	-1.372610E-8	-1.414862E-8	-1.368256E-8	-1.355223E-8	-1.352097E-8	  -20.0135	    9.2712	    3.8096	  -31.2991	
 -240.0000	-7.9527E-9	-8.0630E-9	-7.7680E-9	-8.2000E-9	-7.7800E-9	-1.379941E-8	-1.377920E-8	-1.370965E-8	-1.383683E-8	-1.387198E-8	  -20.0135	    9.2712	    3.8023	  -31.3190	
 -250.0000	-8.1215E-9	-8.2130E-9	-7.7600E-9	-8.3580E-9	-8.1550E-9	-1.400106E-8	-1.409779E-8	-1.399237E-8	-1.399822E-8	-1.391587E-8	  -20.0186	    9.2948	    3.7780	  -31.3692	
 -260.0000	-8.7700E-9	-8.6060E-9	-8.5860E-9	-9.1150E-9	-8.7730E-9	-1.551008E-8	-1.641722E-8	-1.525583E-8	-1.519258E-8	-1.517468E-8	  -20.0135	    9.2948	    3.7666	  -31.4005	
 -270.0000	-8.8833E-9	-9.2410E-9	-9.0440E-9	-8.8790E-9	-8.3690E-9	-1.449729E-8	-1.452364E-8	-1.448222E-8	-1.446030E-8	-1.452299E-8	  -20.0109	    9.3994	    3.7438	  -31.3903	
 -280.0000	-8.7425E-9	-8.9000E-9	-8.6400E-9	-8.6900E-9	-8.7400E-9	-1.050026E-8	-1.049220E-8	-1.048483E-8	-1.049063E-8	-1.053340E-8	  -20.0109	    9.3683	    3.7280	  -31.4560	
 -290.0000	-9.5233E-9	-9.8030E-9	-9.1420E-9	-9.5850E-9	-9.5630E-9	-1.484603E-8	-1.484508E-8	-1.483055E-8	-1.486456E-8	-1.484392E-8	  -20.0109	    9.3683	    3.7249	  -31.4648	
 -300.0000	-9.8838E-9	-9.6920E-9	-9.7760E-9	-1.0052E-8	-1.0015E-8	-1.509241E-8	-1.512116E-8	-1.505552E-8	-1.503158E-8	-1.516139E-8	  -20.0109	    9.2644	    3.7094	  -31.5805	
 -310.0000	-1.0832E-8	-1.0910E-8	-1.0770E-8	-1.0820E-8	-1.0830E-8	-1.161110E-8	-1.154387E-8	-1.149837E-8	-1.169152E-8	-1.171065E-8	  -20.0160	    9.3067	    3.6923	  -31.5988	
 -320.0000	-1.0102E-8	-1.0260E-8	-1.0060E-8	-1.0000E-8	-1.0090E-8	-1.196170E-8	-1.217229E-8	-1.189314E-8	-1.182382E-8	-1.195755E-8	  -20.0186	    9.3067	    3.6752	  -31.6468	
 -330.0000	-1.0817E-8	-1.1430E-8	-1.0920E-8	-1.0560E-8	-1.0360E-8	-1.237362E-8	-1.234586E-8	-1.243550E-8	-1.231502E-8	-1.239809E-8	  -20.0160	    9.3059	    3.6746	  -31.6491	
 -340.0000	-1.2075E-8	-1.2270E-8	-1.2200E-8	-1.2020E-8	-1.1810E-8	-1.267077E-8	-1.273151E-8	-1.266157E-8	-1.262706E-8	-1.266293E-8	  -20.0186	    9.3768	    3.6635	  -31.6309	
 -350.0000	-1.2410E-8	-1.2510E-8	-1.2350E-8	-1.2360E-8	-1.2420E-8	-1.312157E-8	-1.293199E-8	-1.320361E-8	-1.318861E-8	-1.316207E-8	  -20.0186	    9.3768	    3.6724	  -31.6060	
 -360.0000	-1.2845E-8	-1.3110E-8	-1.2900E-8	-1.2700E-8	-1.2670E-8	-1.406314E-8	-1.422906E-8	-1.408341E-8	-1.387295E-8	-1.406714E-8	  -20.0109	    9.3763	    3.6632	  -31.6321	
 -370.0000	-1.2175E-8	-1.2620E-8	-1.2160E-8	-1.1960E-8	-1.1960E-8	-1.469195E-8	-1.457168E-8	-1.500783E-8	-1.460167E-8	-1.458661E-8	  -20.0084	    9.3763	    3.6543	  -31.6572	
 -380.0000	-1.3470E-8	-1.3130E-8	-1.3450E-8	-1.3650E-8	-1.3650E-8	-1.528838E-8	-1.560345E-8	-1.542465E-8	-1.545279E-8	-1.467263E-8	  -20.0059	    9.2918	    3.6676	  -31.6785	
 -390.0000	-1.2965E-8	-1.3470E-8	-1.3020E-8	-1.2710E-8	-1.2660E-8	-1.683483E-8	-1.717900E-8	-1.671197E-8	-1.723541E-8	-1.621294E-8	  -20.0008	    9.3141	    3.6502	  -31.7122	
 -400.0000	-1.4373E-8	-1.4530E-8	-1.4310E-8	-1.4280E-8	-1.4370E-8	-1.758210E-8	-1.751798E-8	-1.746243E-8	-1.758037E-8	-1.776761E-8	  -20.0033	    9.3827	    3.6382	  -31.6985	
 -410.0000	-1.4822E-8	-1.5090E-8	-1.4800E-8	-1.4690E-8	-1.4710E-8	-1.795373E-8	-1.803697E-8	-1.789197E-8	-1.798452E-8	-1.790147E-8	  -19.9957	    9.2562	    3.6284	  -31.8145	
 -420.0000	-1.5215E-8	-1.5420E-8	-1.5140E-8	-1.5100E-8	-1.5200E-8	-1.817957E-8	-1.835197E-8	-1.816183E-8	-1.802549E-8	-1.817899E-8	  -19.9957	    9.2562	    3.6227	  -31.8307	
 -430.0000	-1.5065E-8	-1.5790E-8	-1.5500E-8	-1.4790E-8	-1.4180E-8	-1.842265E-8	-1.831868E-8	-1.850187E-8	-1.842672E-8	-1.844333E-8	  -19.9906	    9.2749	    3.6186	  -31.8294	
 -440.0000	-1.5595E-8	-1.6170E-8	-1.6040E-8	-1.5420E-8	-1.4750E-8	-1.865728E-8	-1.861153E-8	-1.861624E-8	-1.873155E-8	-1.866981E-8	  -19.9880	    9.2309	    3.6078	  -31.8909	
 -450.0000	-1.5268E-8	-1.5810E-8	-1.5160E-8	-1.5000E-8	-1.5100E-8	-1.890033E-8	-1.903869E-8	-1.882479E-8	-1.890303E-8	-1.883479E-8	  -19.9779	    9.2452	    3.6018	  -31.8981	
 -460.0000	-1.6788E-8	-1.6770E-8	-1.6950E-8	-1.6800E-8	-1.6630E-8	-1.908603E-8	-1.909223E-8	-1.906063E-8	-1.907135E-8	-1.911989E-8	  -19.9804	    9.2871	    3.5936	  -31.8925	
 -470.0000	-1.6453E-8	-1.6050E-8	-1.6130E-8	-1.6590E-8	-1.7040E-8	-1.919346E-8	-1.918084E-8	-1.921694E-8	-1.916380E-8	-1.921224E-8	  -19.9830	    9.2975	    3.5952	  -31.8808	
 -480.0000	-1.6565E-8	-1.7170E-8	-1.6550E-8	-1.6270E-8	-1.6270E-8	-1.937426E-8	-1.938127E-8	-1.936874E-8	-1.939013E-8	-1.935690E-8	  -19.9880	    9.2969	    3.5857	  -31.9085	
 -490.0000	-1.8038E-8	-1.8210E-8	-1.8160E-8	-1.7920E-8	-1.7860E-8	-1.957335E-8	-1.953449E-8	-1.959482E-8	-1.957540E-8	-1.958868E-8	  -19.9855	    9.2676	    3.5753	  -31.9589	
 -500.0000	-1.8432E-8	-1.8680E-8	-1.8390E-8	-1.8290E-8	-1.8370E-8	-1.973518E-8	-1.969952E-8	-1.978774E-8	-1.974154E-8	-1.971191E-8	  -19.9855	    9.3256	    3.5541	  -31.9800	
 -510.0000	-1.7603E-8	-1.7740E-8	-1.7660E-8	-1.7500E-8	-1.7510E-8	-1.984291E-8	-1.988162E-8	-1.978048E-8	-1.985310E-8	-1.985642E-8	  -19.9931	    9.3256	    3.5680	  -31.9397	
 -520.0000	-1.8498E-8	-1.9350E-8	-1.8750E-8	-1.8100E-8	-1.7790E-8	-2.003953E-8	-2.013129E-8	-2.003662E-8	-2.003664E-8	-1.995357E-8	  -19.9931	    9.2514	    3.5557	  -32.0269	
 -530.0000	-1.9712E-8	-1.9890E-8	-1.9760E-8	-1.9560E-8	-1.9640E-8	-2.013909E-8	-2.017272E-8	-2.008754E-8	-2.016141E-8	-2.013468E-8	  -19.9957	    9.3533	    3.5424	  -31.9947	
 -540.0000	-1.8830E-8	-1.8880E-8	-1.8870E-8	-1.8850E-8	-1.8720E-8	-2.025105E-8	-2.027168E-8	-2.021963E-8	-2.026708E-8	-2.024582E-8	  -19.9906	    9.3533	    3.5370	  -32.0104	
 -550.0000	-1.9877E-8	-2.0730E-8	-2.0190E-8	-1.9510E-8	-1.9080E-8	-2.041593E-8	-2.044977E-8	-2.046777E-8	-2.035991E-8	-2.038627E-8	  -19.9931	    9.3154	    3.5316	  -32.0524	
 -560.0000	-2.1008E-8	-2.1210E-8	-2.1010E-8	-2.0860E-8	-2.0950E-8	-2.054506E-8	-2.050152E-8	-2.056985E-8	-2.060036E-8	-2.050851E-8	  -20.0008	    9.2813	    3.5361	  -32.0632	
 -570.0000	-2.0195E-8	-2.0500E-8	-2.0060E-8	-2.0080E-8	-2.0140E-8	-2.065970E-8	-2.069001E-8	-2.059824E-8	-2.069648E-8	-2.065407E-8	  -19.9982	    9.3081	    3.5183	  -32.0963	
 -580.0000	-2.0492E-8	-2.2000E-8	-2.0420E-8	-1.9710E-8	-1.9840E-8	-1.427104E-8	-1.248322E-8	-1.610576E-8	-1.245145E-8	-1.604372E-8	  -20.0084	    9.2958	    3.4943	  -32.1755	
 -590.0000	-2.2355E-8	-2.3200E-8	-2.3290E-8	-2.2220E-8	-2.0710E-8	-1.586196E-8	-1.286470E-8	-1.856196E-8	-1.264849E-8	-1.937269E-8	  -20.0084	    9.2934	    3.4956	  -32.1734	
 -600.0000	-2.2703E-8	-2.2930E-8	-2.2660E-8	-2.2580E-8	-2.2640E-8	-1.569645E-8	-1.307525E-8	-1.919004E-8	-1.302992E-8	-1.749059E-8	  -20.0084	    9.1949	    3.4785	  -32.2921	
 -610.0000	-2.1520E-8	-2.2400E-8	-2.1320E-8	-2.1060E-8	-2.1300E-8	-1.471581E-8	-1.325213E-8	-1.324615E-8	-1.324401E-8	-1.912095E-8	  -20.0084	    9.2524	    3.4722	  -32.2710	
 -620.0000	-2.4017E-8	-2.4220E-8	-2.3820E-8	-2.3830E-8	-2.4200E-8	-1.349286E-8	-1.350723E-8	-1.351983E-8	-1.345920E-8	-1.348519E-8	  -20.0084	    9.2524	    3.4706	  -32.2757	
 -630.0000	-2.4437E-8	-2.4430E-8	-2.4230E-8	-2.4390E-8	-2.4700E-8	-1.476053E-8	-1.374708E-8	-1.369967E-8	-1.796875E-8	-1.362663E-8	  -19.9982	    9.2685	    3.4510	  -32.3228	
 -640.0000	-2.4007E-8	-2.2710E-8	-2.3620E-8	-2.4680E-8	-2.5020E-8	-1.512224E-8	-1.849078E-8	-1.404287E-8	-1.394909E-8	-1.400623E-8	  -19.9982	    9.2494	    3.4573	  -32.3172	
 -650.0000	-2.3757E-8	-2.4220E-8	-2.3770E-8	-2.3500E-8	-2.3540E-8	-1.587781E-8	-1.428680E-8	-1.424411E-8	-2.072544E-8	-1.425491E-8	  -20.0008	    9.2494	    3.4677	  -32.2862	
 -660.0000	-2.4848E-8	-2.3540E-8	-2.4410E-8	-2.5520E-8	-2.5920E-8	-1.728925E-8	-2.066687E-8	-1.455703E-8	-1.455199E-8	-1.938113E-8	  -20.0059	    9.2456	    3.4469	  -32.3509	
 -670.0000	-2.6350E-8	-2.6580E-8	-2.6110E-8	-2.6210E-8	-2.6500E-8	-1.483704E-8	-1.488341E-8	-1.480697E-8	-1.479769E-8	-1.486008E-8	  -20.0084	    9.2456	    3.4390	  -32.3745	
 -680.0000	-2.4785E-8	-2.6100E-8	-2.4590E-8	-2.4080E-8	-2.4370E-8	-1.633783E-8	-1.513669E-8	-2.001528E-8	-1.510846E-8	-1.509090E-8	  -20.0109	    9.2737	    3.4330	  -32.3730	
 -690.0000	-2.5205E-8	-2.4970E-8	-2.4590E-8	-2.5750E-8	-2.5510E-8	-1.540515E-8	-1.544273E-8	-1.533437E-8	-1.548173E-8	-1.536175E-8	  -20.0084	    9.2333	    3.4121	  -32.4637	
 -700.0000	-2.6550E-8	-2.7370E-8	-2.6960E-8	-2.6170E-8	-2.5700E-8	-1.569394E-8	-1.567081E-8	-1.566565E-8	-1.569718E-8	-1.574212E-8	  -20.0059	    9.2215	    3.3874	  -32.5463	
 -710.0000	-2.6252E-8	-2.6330E-8	-2.6280E-8	-2.6290E-8	-2.6110E-8	-1.594228E-8	-1.594994E-8	-1.595886E-8	-1.589018E-8	-1.597015E-8	  -20.0008	    9.2215	    3.3855	  -32.5521	
 -720.0000	-2.6760E-8	-2.6950E-8	-2.6690E-8	-2.6730E-8	-2.6670E-8	-1.621051E-8	-1.622507E-8	-1.625739E-8	-1.618895E-8	-1.617065E-8	  -19.9982	    9.2434	    3.3748	  -32.5696	
 -730.0000	-2.7862E-8	-2.8610E-8	-2.8120E-8	-2.7560E-8	-2.7160E-8	-1.647151E-8	-1.649294E-8	-1.647382E-8	-1.644630E-8	-1.647298E-8	  -19.9906	    9.3062	    3.3599	  -32.5714	
 -740.0000	-2.7765E-8	-2.7920E-8	-2.7770E-8	-2.7600E-8	-2.7770E-8	-1.673114E-8	-1.672961E-8	-1.668939E-8	-1.676634E-8	-1.673921E-8	  -19.9982	    9.2569	    3.3593	  -32.6074	
 -750.0000	-3.0090E-8	-3.0310E-8	-2.9900E-8	-2.9840E-8	-3.0310E-8	-1.705152E-8	-1.704816E-8	-1.706641E-8	-1.704380E-8	-1.704770E-8	  -19.9957	    9.2173	    3.3520	  -32.6570	
 -760.0000	-2.8290E-8	-2.9170E-8	-2.8020E-8	-2.7840E-8	-2.8130E-8	-1.740224E-8	-1.742620E-8	-1.743000E-8	-1.736765E-8	-1.738510E-8	  -19.9982	    9.2173	    3.3583	  -32.6377	
 -770.0000	-3.1185E-8	-3.1100E-8	-3.1020E-8	-3.1360E-8	-3.1260E-8	-1.764414E-8	-1.763181E-8	-1.765511E-8	-1.760538E-8	-1.768426E-8	  -20.0033	    9.2704	    3.3435	  -32.6465	
 -780.0000	-2.9260E-8	-2.9210E-8	-2.9160E-8	-2.9430E-8	-2.9240E-8	-1.795637E-8	-1.798901E-8	-1.794153E-8	-1.795744E-8	-1.793751E-8	  -20.0008	    9.2178	    3.3811	  -32.5680	
 -790.0000	-2.9902E-8	-3.0040E-8	-2.9750E-8	-2.9820E-8	-3.0000E-8	-1.825938E-8	-1.831444E-8	-1.829403E-8	-1.823785E-8	-1.819118E-8	  -20.0084	    9.2218	    3.3805	  -32.5672	
 -800.0000	-3.0507E-8	-3.0470E-8	-3.0310E-8	-3.0590E-8	-3.0660E-8	-1.859642E-8	-1.862131E-8	-1.863283E-8	-1.859783E-8	-1.853373E-8	  -19.9957	    9.2143	    3.3561	  -32.6465	
 -810.0000	-3.1060E-8	-3.1180E-8	-3.1340E-8	-3.1070E-8	-3.0650E-8	-1.894981E-8	-1.894333E-8	-1.906673E-8	-1.891668E-8	-1.887251E-8	  -19.9931	    9.2143	    3.3504	  -32.6639	
 -820.0000	-3.3982E-8	-3.4090E-8	-3.4370E-8	-3.4190E-8	-3.3280E-8	-1.927616E-8	-1.929134E-8	-1.927056E-8	-1.923853E-8	-1.930422E-8	  -20.0008	    9.2774	    3.3400	  -32.6523	
 -830.0000	-3.3937E-8	-3.2960E-8	-3.3870E-8	-3.4470E-8	-3.4450E-8	-1.959263E-8	-1.957935E-8	-1.959626E-8	-1.961647E-8	-1.957844E-8	  -20.0109	    9.2465	    3.3327	  -32.6960	
 -840.0000	-3.2440E-8	-3.2600E-8	-3.2700E-8	-3.2440E-8	-3.2020E-8	-1.989294E-8	-1.989148E-8	-1.991593E-8	-1.987112E-8	-1.989321E-8	  -20.0109	    9.2844	    3.3204	  -32.7078	
 -850.0000	-3.5368E-8	-3.5350E-8	-3.5620E-8	-3.5350E-8	-3.5150E-8	-2.032684E-8	-2.031586E-8	-2.026372E-8	-2.031354E-8	-2.041425E-8	  -20.0084	    9.2844	    3.2865	  -32.8127	
 -860.0000	-3.5495E-8	-3.6640E-8	-3.6210E-8	-3.5160E-8	-3.3970E-8	-2.064070E-8	-2.063582E-8	-2.066489E-8	-2.062684E-8	-2.063525E-8	  -20.0059	    9.2253	    3.2992	  -32.8142	
 -870.0000	-3.5715E-8	-3.4530E-8	-3.5340E-8	-3.6280E-8	-3.6710E-8	-2.097932E-8	-2.099680E-8	-2.093565E-8	-2.102289E-8	-2.096195E-8	  -20.0084	    9.2253	    3.2913	  -32.8387	
 -880.0000	-3.7258E-8	-3.9100E-8	-3.6810E-8	-3.6610E-8	-3.6510E-8	-2.125571E-8	-2.138174E-8	-2.120943E-8	-2.122272E-8	-2.120897E-8	  -20.0084	    9.2169	    3.2891	  -32.8514	
 -890.0000	-3.6033E-8	-3.4730E-8	-3.6130E-8	-3.6120E-8	-3.7150E-8	-2.166622E-8	-2.168352E-8	-2.188441E-8	-2.155842E-8	-2.153855E-8	  -20.0059	    9.2870	    3.2726	  -32.8544	
 -900.0000	-3.7895E-8	-3.8450E-8	-3.7800E-8	-3.7760E-8	-3.7570E-8	-2.196805E-8	-2.196857E-8	-2.194749E-8	-2.198200E-8	-2.197415E-8	  -20.0059	    9.2419	    3.2638	  -32.9132	
 -910.0000	-3.8712E-8	-3.8540E-8	-3.8870E-8	-3.8840E-8	-3.8600E-8	-2.244258E-8	-2.236951E-8	-2.235063E-8	-2.268840E-8	-2.236177E-8	  -20.0059	    9.2110	    3.2546	  -32.9632	
 -920.0000	-3.8252E-8	-3.9210E-8	-3.9090E-8	-3.6900E-8	-3.7810E-8	-2.272629E-8	-2.267518E-8	-2.273095E-8	-2.276356E-8	-2.273547E-8	  -20.0059	    9.1713	    3.2641	  -32.9608	
 -930.0000	-3.8347E-8	-3.9220E-8	-3.8210E-8	-3.7780E-8	-3.8180E-8	-2.320405E-8	-2.296951E-8	-2.302328E-8	-2.360769E-8	-2.321573E-8	  -20.0059	    9.2128	    3.2666	  -32.9243	
 -940.0000	-3.8830E-8	-3.8960E-8	-3.8900E-8	-3.8780E-8	-3.8680E-8	-2.335907E-8	-2.335237E-8	-2.332980E-8	-2.337986E-8	-2.337427E-8	  -20.0084	    9.2128	    3.2676	  -32.9213	
 -950.0000	-3.9542E-8	-3.9630E-8	-3.9470E-8	-3.9440E-8	-3.9630E-8	-2.371888E-8	-2.374106E-8	-2.373088E-8	-2.371166E-8	-2.369193E-8	  -20.0059	    9.2087	    3.3020	  -32.8168	
 -960.0000	-4.0413E-8	-4.1110E-8	-4.0500E-8	-4.0110E-8	-3.9930E-8	-2.407632E-8	-2.410050E-8	-2.414146E-8	-2.404446E-8	-2.401885E-8	  -20.0059	    9.2087	    3.2824	  -32.8777	
 -970.0000	-4.0757E-8	-4.0860E-8	-4.0720E-8	-4.0770E-8	-4.0680E-8	-2.447662E-8	-2.446619E-8	-2.450906E-8	-2.448549E-8	-2.444573E-8	  -20.0033	    9.2116	    3.2780	  -32.8896	
 -980.0000	-4.1375E-8	-4.1590E-8	-4.1350E-8	-4.1230E-8	-4.1330E-8	-2.480029E-8	-2.477451E-8	-2.478970E-8	-2.481649E-8	-2.482044E-8	  -19.9931	    9.2116	    3.2565	  -32.9569	
 -990.0000	-4.3182E-8	-4.3460E-8	-4.3250E-8	-4.3080E-8	-4.2940E-8	-2.509665E-8	-2.509136E-8	-2.508405E-8	-2.508758E-8	-2.512362E-8	  -19.9982	    9.2353	    3.2505	  -32.9594	
-1000.0000	-4.2592E-8	-4.2680E-8	-4.2700E-8	-4.2560E-8	-4.2430E-8	-2.551812E-8	-2.550313E-8	-2.554483E-8	-2.555679E-8	-2.546773E-8	  -19.9957	    9.2069	    3.2448	  -32.9969	
