GCD Test
Bias: 5000.000000
IV_34340_007_PSS_HM_XX_DIODEHALF_Irradiated
Date/Time: 7/2/2021 2:37:16 PM
Sensor Name: DIODEHALF
Type: P
Annealing Status: Irradiated and Annealed
Environment: -20C
Tester: Andrew Kent

Time Delay per Ramp Step (s): 1.000

CV Time Delay per Measurement (s) :0.500

AC Voltage (V): 0.500

Current Number of measurements per voltage: 4.000

IV Time Delay per Measurement (s) :0.000


BiasVoltage	Total Current_Avg	Total Current_0	Total Current_1	Total Current_2	Total Current_3	Bias Current_Avg	Bias Current_0	Bias Current_1	Bias Current_2	Bias Current_3	Temperature	Air_Temp	Humidity	Dewpoint	
  -10.0000	-1.0958E-8	-1.1020E-8	-1.0930E-8	-1.0920E-8	-1.0960E-8	-1.140499E-8	-1.146534E-8	-1.144458E-8	-1.137104E-8	-1.133900E-8	  -19.9880	   11.2112	    3.1885	  -31.7995	
  -20.0000	-2.7565E-8	-2.7790E-8	-2.7750E-8	-2.7460E-8	-2.7260E-8	-2.790756E-8	-2.768335E-8	-2.800187E-8	-2.820197E-8	-2.774304E-8	  -19.9702	   11.2792	    3.1765	  -31.7918	
  -30.0000	-4.9357E-8	-4.9270E-8	-4.9350E-8	-4.9450E-8	-4.9360E-8	-4.954657E-8	-5.007531E-8	-4.937089E-8	-4.916444E-8	-4.957564E-8	  -19.9702	   11.2792	    3.1720	  -31.8063	
  -40.0000	-7.5117E-8	-7.5070E-8	-7.4510E-8	-7.5330E-8	-7.5560E-8	-7.578840E-8	-7.599505E-8	-7.544853E-8	-7.584421E-8	-7.586581E-8	  -19.9575	   11.2763	    3.1559	  -31.8609	
  -50.0000	-1.0860E-7	-1.0850E-7	-1.0810E-7	-1.0870E-7	-1.0910E-7	-1.100023E-7	-1.096611E-7	-1.099225E-7	-1.102898E-7	-1.101357E-7	  -19.9677	   11.2148	    3.1524	  -31.9144	
  -60.0000	-1.5265E-7	-1.5430E-7	-1.5160E-7	-1.5150E-7	-1.5320E-7	-1.543347E-7	-1.544366E-7	-1.548135E-7	-1.547313E-7	-1.533575E-7	  -19.9677	   11.1972	    3.1436	  -31.9555	
  -70.0000	-2.1193E-7	-2.1000E-7	-2.1100E-7	-2.1340E-7	-2.1330E-7	-2.128944E-7	-2.125226E-7	-2.112790E-7	-2.135242E-7	-2.142518E-7	  -19.9906	   11.0930	    3.1290	  -32.0747	
  -80.0000	-2.8322E-7	-2.8320E-7	-2.8230E-7	-2.8650E-7	-2.8090E-7	-2.808291E-7	-2.837466E-7	-2.843462E-7	-2.829076E-7	-2.723161E-7	  -20.0084	   11.0725	    3.1230	  -32.1086	
  -90.0000	-3.5940E-7	-3.5900E-7	-3.6180E-7	-3.6030E-7	-3.5650E-7	-3.572273E-7	-3.553475E-7	-3.603587E-7	-3.552039E-7	-3.579993E-7	  -19.9957	   11.1323	    3.1211	  -32.0739	
 -100.0000	-4.3240E-7	-4.3110E-7	-4.3430E-7	-4.3280E-7	-4.3140E-7	-4.338281E-7	-4.360170E-7	-4.300774E-7	-4.406474E-7	-4.285705E-7	  -20.0135	   11.1778	    3.1151	  -32.0626	
 -110.0000	-4.9995E-7	-4.9640E-7	-5.0120E-7	-5.0400E-7	-4.9820E-7	-4.961114E-7	-4.962665E-7	-4.958396E-7	-4.966237E-7	-4.957159E-7	  -20.0135	   11.1428	    3.1094	  -32.1054	
 -120.0000	-5.5748E-7	-5.6020E-7	-5.5550E-7	-5.5410E-7	-5.6010E-7	-5.552119E-7	-5.606002E-7	-5.520971E-7	-5.567919E-7	-5.513585E-7	  -20.0287	   11.1841	    3.0993	  -32.1108	
 -130.0000	-6.2077E-7	-6.1860E-7	-6.2370E-7	-6.2060E-7	-6.2020E-7	-6.181477E-7	-6.175392E-7	-6.174910E-7	-6.199051E-7	-6.176557E-7	  -20.0313	   11.2489	    3.0958	  -32.0781	
 -140.0000	-6.6860E-7	-6.7060E-7	-6.6530E-7	-6.6790E-7	-6.7060E-7	-6.767938E-7	-6.744910E-7	-6.742768E-7	-6.784542E-7	-6.799532E-7	  -20.0262	   11.2489	    3.0901	  -32.0970	
 -150.0000	-7.2095E-7	-7.2420E-7	-7.2070E-7	-7.2140E-7	-7.1750E-7	-7.161137E-7	-7.140678E-7	-7.169337E-7	-7.186126E-7	-7.148406E-7	  -20.0237	   11.2562	    3.0787	  -32.1301	
 -160.0000	-7.6425E-7	-7.6640E-7	-7.6830E-7	-7.6250E-7	-7.5980E-7	-7.621005E-7	-7.601110E-7	-7.654664E-7	-7.604668E-7	-7.623576E-7	  -20.0160	   11.1826	    3.0886	  -32.1476	
 -170.0000	-8.0362E-7	-8.0080E-7	-8.0130E-7	-8.0710E-7	-8.0530E-7	-8.061247E-7	-8.022126E-7	-8.074682E-7	-8.096527E-7	-8.051654E-7	  -19.9855	   11.1582	    3.0762	  -32.2055	
 -180.0000	-8.4930E-7	-8.5100E-7	-8.5340E-7	-8.4670E-7	-8.4610E-7	-8.382708E-7	-8.340507E-7	-8.362908E-7	-8.412147E-7	-8.415270E-7	  -19.9957	   11.1582	    3.0727	  -32.2172	
 -190.0000	-8.7780E-7	-8.7940E-7	-8.8460E-7	-8.7130E-7	-8.7590E-7	-8.867382E-7	-8.905133E-7	-8.938610E-7	-8.822443E-7	-8.803344E-7	  -19.9855	   11.2162	    3.0712	  -32.1828	
 -200.0000	-9.1912E-7	-9.1800E-7	-9.1480E-7	-9.2260E-7	-9.2110E-7	-9.174729E-7	-9.248699E-7	-9.242995E-7	-9.122626E-7	-9.084595E-7	  -19.9855	   11.2022	    3.0724	  -32.1882	
 -210.0000	-9.4852E-7	-9.5220E-7	-9.4770E-7	-9.5110E-7	-9.4310E-7	-9.494801E-7	-9.462066E-7	-9.498254E-7	-9.540852E-7	-9.478034E-7	  -19.9855	   11.2177	    3.0841	  -32.1384	
 -220.0000	-9.7882E-7	-9.7780E-7	-9.7570E-7	-9.8070E-7	-9.8110E-7	-9.878124E-7	-9.859741E-7	-9.882640E-7	-9.946632E-7	-9.823484E-7	  -19.9880	   11.2177	    3.0895	  -32.1205	
 -230.0000	-1.0228E-6	-1.0220E-6	-1.0240E-6	-1.0240E-6	-1.0210E-6	-1.005904E-6	-1.010645E-6	-1.001180E-6	-1.005006E-6	-1.006786E-6	  -19.9855	   11.2599	    3.0961	  -32.0695	
 -240.0000	-1.0433E-6	-1.0390E-6	-1.0410E-6	-1.0440E-6	-1.0490E-6	-1.044101E-6	-1.048957E-6	-1.041358E-6	-1.044992E-6	-1.041096E-6	  -19.9957	   11.2064	    3.0952	  -32.1092	
 -250.0000	-1.0695E-6	-1.0670E-6	-1.0680E-6	-1.0680E-6	-1.0750E-6	-1.085388E-6	-1.082379E-6	-1.086544E-6	-1.088031E-6	-1.084597E-6	  -20.0059	   11.2182	    3.0927	  -32.1096	
 -260.0000	-1.1128E-6	-1.1170E-6	-1.1160E-6	-1.1070E-6	-1.1110E-6	-1.109666E-6	-1.099573E-6	-1.109225E-6	-1.114605E-6	-1.115263E-6	  -20.0008	   11.2182	    3.0914	  -32.1138	
 -270.0000	-1.1213E-6	-1.1200E-6	-1.1080E-6	-1.1190E-6	-1.1380E-6	-1.127063E-6	-1.128533E-6	-1.131572E-6	-1.126615E-6	-1.121532E-6	  -19.9982	   11.1934	    3.0920	  -32.1287	
 -280.0000	-1.1615E-6	-1.1570E-6	-1.1630E-6	-1.1630E-6	-1.1630E-6	-1.145865E-6	-1.151898E-6	-1.143209E-6	-1.140488E-6	-1.147863E-6	  -20.0109	   11.1754	    3.0961	  -32.1272	
 -290.0000	-1.1783E-6	-1.1830E-6	-1.1730E-6	-1.1730E-6	-1.1840E-6	-1.184737E-6	-1.187271E-6	-1.187609E-6	-1.182488E-6	-1.181579E-6	  -20.0084	   11.0733	    3.0895	  -32.2191	
 -300.0000	-1.2050E-6	-1.2020E-6	-1.2090E-6	-1.2120E-6	-1.1970E-6	-1.198036E-6	-1.186015E-6	-1.197682E-6	-1.199835E-6	-1.208614E-6	  -20.0160	   11.0560	    3.0822	  -32.2553	
 -310.0000	-1.2245E-6	-1.2220E-6	-1.2250E-6	-1.2230E-6	-1.2280E-6	-1.222780E-6	-1.229624E-6	-1.216938E-6	-1.223308E-6	-1.221252E-6	  -20.0059	   11.0893	    3.0784	  -32.2451	
 -320.0000	-1.2552E-6	-1.2590E-6	-1.2550E-6	-1.2540E-6	-1.2530E-6	-1.247312E-6	-1.248936E-6	-1.247001E-6	-1.241708E-6	-1.251602E-6	  -20.0033	   11.1133	    3.0819	  -32.2172	
 -330.0000	-1.2773E-6	-1.2710E-6	-1.2770E-6	-1.2750E-6	-1.2860E-6	-1.277514E-6	-1.281415E-6	-1.275777E-6	-1.273703E-6	-1.279160E-6	  -20.0008	   11.1936	    3.0803	  -32.1675	
 -340.0000	-1.2975E-6	-1.2900E-6	-1.3010E-6	-1.3000E-6	-1.2990E-6	-1.298646E-6	-1.298355E-6	-1.305061E-6	-1.297188E-6	-1.293978E-6	  -20.0033	   11.1618	    3.0740	  -32.2104	
 -350.0000	-1.3155E-6	-1.3090E-6	-1.3220E-6	-1.3180E-6	-1.3130E-6	-1.309819E-6	-1.312391E-6	-1.316390E-6	-1.302936E-6	-1.307560E-6	  -20.0059	   11.1059	    3.0702	  -32.2613	
 -360.0000	-1.3362E-6	-1.3460E-6	-1.3270E-6	-1.3370E-6	-1.3350E-6	-1.338038E-6	-1.347724E-6	-1.345808E-6	-1.330860E-6	-1.327760E-6	  -20.0262	   11.1133	    3.0557	  -32.3051	
 -370.0000	-1.3627E-6	-1.3610E-6	-1.3650E-6	-1.3610E-6	-1.3640E-6	-1.358778E-6	-1.346403E-6	-1.355475E-6	-1.369702E-6	-1.363531E-6	  -20.0262	   11.1605	    3.0667	  -32.2357	
 -380.0000	-1.3808E-6	-1.3770E-6	-1.3800E-6	-1.3850E-6	-1.3810E-6	-1.385113E-6	-1.386889E-6	-1.391174E-6	-1.385837E-6	-1.376554E-6	  -20.0135	   11.1701	    3.0712	  -32.2143	
 -390.0000	-1.3980E-6	-1.4080E-6	-1.4010E-6	-1.3930E-6	-1.3900E-6	-1.381015E-6	-1.375172E-6	-1.373870E-6	-1.381633E-6	-1.393385E-6	  -19.9982	   11.2247	    3.0822	  -32.1399	
 -400.0000	-1.4210E-6	-1.4170E-6	-1.4300E-6	-1.4160E-6	-1.4210E-6	-1.407736E-6	-1.409211E-6	-1.405476E-6	-1.402572E-6	-1.413687E-6	  -20.0109	   11.1829	    3.0740	  -32.1960	
 -410.0000	-1.4340E-6	-1.4420E-6	-1.4240E-6	-1.4370E-6	-1.4330E-6	-1.424963E-6	-1.426329E-6	-1.427962E-6	-1.417399E-6	-1.428161E-6	  -20.0033	   11.2175	    3.0705	  -32.1841	
 -420.0000	-1.4467E-6	-1.4420E-6	-1.4330E-6	-1.4600E-6	-1.4520E-6	-1.457823E-6	-1.456881E-6	-1.453505E-6	-1.453528E-6	-1.467379E-6	  -19.9906	   11.1629	    3.0765	  -32.2012	
 -430.0000	-1.4703E-6	-1.4780E-6	-1.4750E-6	-1.4640E-6	-1.4640E-6	-1.465534E-6	-1.457068E-6	-1.463187E-6	-1.468101E-6	-1.473779E-6	  -19.9982	   11.1490	    3.0870	  -32.1759	
 -440.0000	-1.4922E-6	-1.4990E-6	-1.4890E-6	-1.4940E-6	-1.4870E-6	-1.481216E-6	-1.485597E-6	-1.474933E-6	-1.480466E-6	-1.483867E-6	  -20.0059	   11.1743	    3.0838	  -32.1691	
 -450.0000	-1.5005E-6	-1.5070E-6	-1.5020E-6	-1.4980E-6	-1.4950E-6	-1.515125E-6	-1.517296E-6	-1.515438E-6	-1.516207E-6	-1.511557E-6	  -20.0059	   11.2022	    3.1025	  -32.0879	
 -460.0000	-1.5212E-6	-1.5220E-6	-1.5210E-6	-1.5220E-6	-1.5200E-6	-1.511675E-6	-1.509930E-6	-1.514587E-6	-1.520627E-6	-1.501555E-6	  -20.0033	   11.1849	    3.1123	  -32.0672	
 -470.0000	-1.5225E-6	-1.5240E-6	-1.5080E-6	-1.5220E-6	-1.5360E-6	-1.539559E-6	-1.543209E-6	-1.537372E-6	-1.536324E-6	-1.541329E-6	  -20.0109	   11.1678	    3.1034	  -32.1083	
 -480.0000	-1.5488E-6	-1.5610E-6	-1.5510E-6	-1.5330E-6	-1.5500E-6	-1.545077E-6	-1.544554E-6	-1.546410E-6	-1.546858E-6	-1.542486E-6	  -20.0109	   11.1348	    3.1063	  -32.1214	
 -490.0000	-1.5718E-6	-1.5540E-6	-1.5670E-6	-1.5820E-6	-1.5840E-6	-1.570771E-6	-1.576529E-6	-1.567583E-6	-1.557505E-6	-1.581466E-6	  -20.0160	   11.1054	    3.1312	  -32.0589	
 -500.0000	-1.5880E-6	-1.5950E-6	-1.5750E-6	-1.5920E-6	-1.5900E-6	-1.585207E-6	-1.584942E-6	-1.578312E-6	-1.590971E-6	-1.586602E-6	  -20.0109	   11.1054	    3.1467	  -32.0080	
 -510.0000	-1.6000E-6	-1.5970E-6	-1.5940E-6	-1.6050E-6	-1.6040E-6	-1.592180E-6	-1.598431E-6	-1.596675E-6	-1.589269E-6	-1.584345E-6	  -19.9957	   11.1032	    3.1388	  -32.0354	
 -520.0000	-1.6080E-6	-1.6070E-6	-1.6120E-6	-1.6070E-6	-1.6060E-6	-1.602591E-6	-1.610810E-6	-1.607732E-6	-1.598664E-6	-1.593158E-6	  -20.0059	   11.1208	    3.1297	  -32.0536	
 -530.0000	-1.6118E-6	-1.6030E-6	-1.6190E-6	-1.6090E-6	-1.6160E-6	-1.627998E-6	-1.628583E-6	-1.617950E-6	-1.626006E-6	-1.639454E-6	  -20.0059	   11.1321	    3.1382	  -32.0178	
 -540.0000	-1.6387E-6	-1.6290E-6	-1.6340E-6	-1.6440E-6	-1.6480E-6	-1.642192E-6	-1.649104E-6	-1.650959E-6	-1.634974E-6	-1.633729E-6	  -19.9957	   11.0736	    3.1135	  -32.1392	
 -550.0000	-1.6455E-6	-1.6340E-6	-1.6350E-6	-1.6520E-6	-1.6610E-6	-1.645124E-6	-1.652484E-6	-1.644458E-6	-1.643587E-6	-1.639966E-6	  -19.9880	   11.1204	    3.0993	  -32.1544	
 -560.0000	-1.6590E-6	-1.6560E-6	-1.6540E-6	-1.6630E-6	-1.6630E-6	-1.653551E-6	-1.655805E-6	-1.657705E-6	-1.656186E-6	-1.644508E-6	  -19.9830	   11.0974	    3.0971	  -32.1774	
 -570.0000	-1.6660E-6	-1.6600E-6	-1.6680E-6	-1.6720E-6	-1.6640E-6	-1.665122E-6	-1.656563E-6	-1.656552E-6	-1.667791E-6	-1.679580E-6	  -20.0033	   11.1187	    3.0999	  -32.1534	
 -580.0000	-1.6790E-6	-1.7030E-6	-1.6880E-6	-1.6660E-6	-1.6590E-6	-1.675300E-6	-1.679307E-6	-1.670312E-6	-1.677452E-6	-1.674128E-6	  -19.9880	   11.1556	    3.0990	  -32.1313	
 -590.0000	-1.6885E-6	-1.6930E-6	-1.6900E-6	-1.6860E-6	-1.6850E-6	-1.694500E-6	-1.685090E-6	-1.694211E-6	-1.688152E-6	-1.710546E-6	  -19.9957	   11.1556	    3.1022	  -32.1208	
 -600.0000	-1.6952E-6	-1.6990E-6	-1.6910E-6	-1.6910E-6	-1.7000E-6	-1.693362E-6	-1.690428E-6	-1.704096E-6	-1.690404E-6	-1.688519E-6	  -19.9779	   11.1642	    3.1028	  -32.1128	
 -610.0000	-1.7205E-6	-1.7340E-6	-1.7240E-6	-1.7160E-6	-1.7080E-6	-1.707427E-6	-1.699252E-6	-1.701572E-6	-1.715495E-6	-1.713390E-6	  -19.9982	   11.1396	    3.1034	  -32.1276	
 -620.0000	-1.7468E-6	-1.7480E-6	-1.7410E-6	-1.7550E-6	-1.7430E-6	-1.739409E-6	-1.739040E-6	-1.759634E-6	-1.733645E-6	-1.725317E-6	  -19.9906	   11.1159	    3.0879	  -32.1953	
 -630.0000	-1.7458E-6	-1.7580E-6	-1.7570E-6	-1.7400E-6	-1.7280E-6	-1.731216E-6	-1.734289E-6	-1.730391E-6	-1.738781E-6	-1.721404E-6	  -19.9982	   11.1159	    3.0781	  -32.2280	
 -640.0000	-1.7542E-6	-1.7510E-6	-1.7500E-6	-1.7660E-6	-1.7500E-6	-1.748958E-6	-1.746395E-6	-1.748986E-6	-1.746112E-6	-1.754339E-6	  -19.9906	   11.1446	    3.0841	  -32.1884	
 -650.0000	-1.7475E-6	-1.7340E-6	-1.7430E-6	-1.7620E-6	-1.7510E-6	-1.749481E-6	-1.754598E-6	-1.744933E-6	-1.746284E-6	-1.752110E-6	  -19.9880	   11.1922	    3.0680	  -32.2098	
 -660.0000	-1.7637E-6	-1.7770E-6	-1.7560E-6	-1.7660E-6	-1.7560E-6	-1.763792E-6	-1.772697E-6	-1.767168E-6	-1.764472E-6	-1.750830E-6	  -19.9804	   11.2102	    3.0601	  -32.2241	
 -670.0000	-1.7863E-6	-1.7720E-6	-1.7770E-6	-1.7990E-6	-1.7970E-6	-1.787186E-6	-1.790861E-6	-1.793471E-6	-1.783623E-6	-1.780789E-6	  -19.9855	   11.1839	    3.0601	  -32.2421	
 -680.0000	-1.7940E-6	-1.8020E-6	-1.8050E-6	-1.7900E-6	-1.7790E-6	-1.786015E-6	-1.787678E-6	-1.788994E-6	-1.782632E-6	-1.784758E-6	  -19.9779	   11.2130	    3.0402	  -32.2894	
 -690.0000	-1.8063E-6	-1.8110E-6	-1.8170E-6	-1.7960E-6	-1.8010E-6	-1.816645E-6	-1.825503E-6	-1.809115E-6	-1.817116E-6	-1.814844E-6	  -19.9728	   11.2314	    3.0319	  -32.3047	
 -700.0000	-1.8123E-6	-1.8040E-6	-1.8250E-6	-1.8080E-6	-1.8120E-6	-1.810675E-6	-1.811569E-6	-1.810373E-6	-1.806118E-6	-1.814640E-6	  -19.9728	   11.2509	    3.0370	  -32.2743	
 -710.0000	-1.8182E-6	-1.8280E-6	-1.8100E-6	-1.8190E-6	-1.8160E-6	-1.819318E-6	-1.807365E-6	-1.821462E-6	-1.823521E-6	-1.824922E-6	  -19.9880	   11.2541	    3.0405	  -32.2603	
 -720.0000	-1.8240E-6	-1.8340E-6	-1.8300E-6	-1.8120E-6	-1.8200E-6	-1.833317E-6	-1.831666E-6	-1.825795E-6	-1.842508E-6	-1.833300E-6	  -19.9855	   11.2052	    3.0481	  -32.2680	
 -730.0000	-1.8390E-6	-1.8480E-6	-1.8310E-6	-1.8420E-6	-1.8350E-6	-1.834695E-6	-1.840679E-6	-1.850346E-6	-1.832577E-6	-1.815180E-6	  -19.9830	   11.2412	    3.0531	  -32.2263	
 -740.0000	-1.8487E-6	-1.8580E-6	-1.8520E-6	-1.8410E-6	-1.8440E-6	-1.840448E-6	-1.838842E-6	-1.843802E-6	-1.838120E-6	-1.841029E-6	  -19.9906	   11.2147	    3.0661	  -32.2008	
 -750.0000	-1.8557E-6	-1.8340E-6	-1.8610E-6	-1.8650E-6	-1.8630E-6	-1.863289E-6	-1.863644E-6	-1.864660E-6	-1.868093E-6	-1.856758E-6	  -19.9982	   11.1983	    3.0623	  -32.2248	
 -760.0000	-1.8587E-6	-1.8480E-6	-1.8640E-6	-1.8590E-6	-1.8640E-6	-1.868945E-6	-1.862961E-6	-1.856090E-6	-1.881304E-6	-1.875423E-6	  -20.0135	   11.1885	    3.0655	  -32.2209	
 -770.0000	-1.8703E-6	-1.8730E-6	-1.8710E-6	-1.8660E-6	-1.8710E-6	-1.872155E-6	-1.853827E-6	-1.872410E-6	-1.883107E-6	-1.879275E-6	  -20.0237	   11.2254	    3.0743	  -32.1660	
 -780.0000	-1.8993E-6	-1.8890E-6	-1.9030E-6	-1.9060E-6	-1.8990E-6	-1.873050E-6	-1.875708E-6	-1.883098E-6	-1.875504E-6	-1.857888E-6	  -20.0160	   11.2005	    3.0898	  -32.1312	
 -790.0000	-1.8925E-6	-1.8880E-6	-1.8930E-6	-1.8980E-6	-1.8910E-6	-1.868738E-6	-1.875516E-6	-1.869392E-6	-1.862578E-6	-1.867465E-6	  -20.0135	   11.1695	    3.0892	  -32.1545	
 -800.0000	-1.8935E-6	-1.9040E-6	-1.8840E-6	-1.8840E-6	-1.9020E-6	-1.891452E-6	-1.898164E-6	-1.908114E-6	-1.880099E-6	-1.879431E-6	  -20.0186	   11.2108	    3.0813	  -32.1526	
 -810.0000	-1.9115E-6	-1.8940E-6	-1.9060E-6	-1.9220E-6	-1.9240E-6	-1.910468E-6	-1.915948E-6	-1.907857E-6	-1.904232E-6	-1.913834E-6	  -20.0186	   11.1614	    3.0680	  -32.2309	
 -820.0000	-1.9135E-6	-1.9180E-6	-1.9110E-6	-1.9020E-6	-1.9230E-6	-1.899724E-6	-1.889520E-6	-1.899869E-6	-1.896181E-6	-1.913328E-6	  -20.0160	   11.1656	    3.0585	  -32.2598	
 -830.0000	-1.9197E-6	-1.9230E-6	-1.9350E-6	-1.9170E-6	-1.9040E-6	-1.917417E-6	-1.909970E-6	-1.910936E-6	-1.919865E-6	-1.928898E-6	  -20.0186	   11.1150	    3.0493	  -32.3253	
 -840.0000	-1.9300E-6	-1.9320E-6	-1.9240E-6	-1.9240E-6	-1.9400E-6	-1.931953E-6	-1.933942E-6	-1.939564E-6	-1.930536E-6	-1.923770E-6	  -20.0237	   11.0825	    3.0585	  -32.3166	
 -850.0000	-1.9362E-6	-1.9220E-6	-1.9360E-6	-1.9410E-6	-1.9460E-6	-1.948773E-6	-1.955585E-6	-1.954169E-6	-1.948614E-6	-1.936723E-6	  -20.0338	   11.0783	    3.0557	  -32.3291	
 -860.0000	-1.9590E-6	-1.9640E-6	-1.9520E-6	-1.9600E-6	-1.9600E-6	-1.956545E-6	-1.946409E-6	-1.961444E-6	-1.959793E-6	-1.958533E-6	  -20.0313	   11.1596	    3.0474	  -32.3012	
 -870.0000	-1.9657E-6	-1.9670E-6	-1.9590E-6	-1.9740E-6	-1.9630E-6	-1.954957E-6	-1.963703E-6	-1.962509E-6	-1.947999E-6	-1.945617E-6	  -20.0160	   11.1596	    3.0405	  -32.3247	
 -880.0000	-1.9673E-6	-1.9870E-6	-1.9630E-6	-1.9440E-6	-1.9750E-6	-1.960014E-6	-1.966691E-6	-1.967434E-6	-1.955676E-6	-1.950255E-6	  -20.0084	   11.1210	    3.0465	  -32.3308	
 -890.0000	-1.9843E-6	-1.9690E-6	-1.9740E-6	-1.9920E-6	-2.0020E-6	-1.979176E-6	-1.981532E-6	-1.980376E-6	-1.976914E-6	-1.977882E-6	  -20.0084	   11.1141	    3.0449	  -32.3409	
 -900.0000	-1.9693E-6	-1.9460E-6	-1.9680E-6	-1.9780E-6	-1.9850E-6	-2.002051E-6	-2.001890E-6	-2.012019E-6	-1.997256E-6	-1.997037E-6	  -20.0033	   11.1613	    3.0550	  -32.2745	
 -910.0000	-1.9930E-6	-1.9980E-6	-1.9850E-6	-1.9940E-6	-1.9950E-6	-1.995326E-6	-1.982647E-6	-2.000180E-6	-2.010527E-6	-1.987950E-6	  -20.0135	   11.1543	    3.0455	  -32.3113	
 -920.0000	-2.0117E-6	-2.0140E-6	-2.0250E-6	-2.0020E-6	-2.0060E-6	-2.014909E-6	-2.017406E-6	-2.023605E-6	-2.014333E-6	-2.004291E-6	  -20.0084	   11.1656	    3.0440	  -32.3089	
 -930.0000	-2.0122E-6	-2.0290E-6	-2.0200E-6	-2.0000E-6	-2.0000E-6	-2.011561E-6	-2.005623E-6	-2.010333E-6	-2.023380E-6	-2.006909E-6	  -19.9931	   11.1492	    3.0440	  -32.3201	
 -940.0000	-2.0167E-6	-2.0260E-6	-2.0080E-6	-2.0170E-6	-2.0160E-6	-2.029057E-6	-2.038647E-6	-2.019438E-6	-2.027982E-6	-2.030160E-6	  -19.9855	   11.1653	    3.0417	  -32.3166	
 -950.0000	-2.0285E-6	-2.0360E-6	-2.0270E-6	-2.0240E-6	-2.0270E-6	-2.026560E-6	-2.024194E-6	-2.020051E-6	-2.028906E-6	-2.033088E-6	  -19.9957	   11.1665	    3.0253	  -32.3715	
 -960.0000	-2.0455E-6	-2.0400E-6	-2.0330E-6	-2.0490E-6	-2.0600E-6	-2.053941E-6	-2.053799E-6	-2.047874E-6	-2.051206E-6	-2.062887E-6	  -19.9830	   11.1665	    3.0228	  -32.3801	
 -970.0000	-2.0423E-6	-2.0560E-6	-2.0480E-6	-2.0390E-6	-2.0260E-6	-2.021481E-6	-2.008444E-6	-2.012290E-6	-2.025064E-6	-2.040126E-6	  -19.9982	   11.1515	    3.0215	  -32.3947	
 -980.0000	-2.0605E-6	-2.0630E-6	-2.0670E-6	-2.0530E-6	-2.0590E-6	-2.052892E-6	-2.061960E-6	-2.057618E-6	-2.047427E-6	-2.044563E-6	  -20.0237	   11.1759	    3.0127	  -32.4082	
 -990.0000	-2.0630E-6	-2.0740E-6	-2.0680E-6	-2.0580E-6	-2.0520E-6	-2.047977E-6	-2.047928E-6	-2.044090E-6	-2.044878E-6	-2.055014E-6	  -20.0186	   11.0988	    3.0013	  -32.4997	
-1000.0000	-2.0712E-6	-2.0890E-6	-2.0600E-6	-2.0670E-6	-2.0690E-6	-2.071700E-6	-2.056263E-6	-2.055753E-6	-2.085359E-6	-2.089424E-6	  -20.0211	   11.0988	    3.0006	  -32.5018	
