#Open Capacitance 1000Hz:Not Measured
#Open Capacitance 1000000Hz:5.043140E-12
#37895_001_PSS_HM_XX_Unirrad_Interstrip
#Date/Time: 12/7/2021 3:04:31 PM
#Sensor Name: 37895_001_PSS_HM_XX
#Station: Tesla
#Annealing Status: Not Irradiated
#Environment: 23.5C
#Tester: Eric Spencer

#Notes: 

#Time Delay per Ramp Step (s): 0.000

#Time Delay per Measurement (s) :0.000

#Number of measurements per voltage: 0.000



Strip 	Time	RH	ChuckT	AirT	Global Current	Interstrip C	I_InterstripR_V-0.0	I_InterstripR_V-1.0	I_InterstripR_V-2.0	I_InterstripR_V-3.0	I_InterstripR_V-4.0	I_InterstripR_V-5.0
1	3721752341.623494	1.234342	23.500000	27.106899	-7.000000E-11	6.924450E-12	-1.833332E-9	-3.361174E-7	-6.702325E-7	-1.005101E-6	-1.339743E-6	-1.673560E-6
#Open Capacitance 1000Hz:Not Measured
#Open Capacitance 1000000Hz:4.314770E-12
#37895_001_PSS_HM_XX_Unirrad_Interstrip
#Date/Time: 12/7/2021 3:07:17 PM
#Sensor Name: 37895_001_PSS_HM_XX
#Station: Tesla
#Annealing Status: Not Irradiated
#Environment: 23.5C
#Tester: Eric Spencer

#Notes: 

#Time Delay per Ramp Step (s): 0.000

#Time Delay per Measurement (s) :0.000

#Number of measurements per voltage: 0.000



Strip 	Time	RH	ChuckT	AirT	Global Current	Interstrip C	I_InterstripR_V-0.0	I_InterstripR_V-1.0	I_InterstripR_V-2.0	I_InterstripR_V-3.0	I_InterstripR_V-4.0	I_InterstripR_V-5.0
1	3721752506.418812	1.226207	23.500000	27.127883	-3.640000E-9	5.310850E-12	-4.001429E-11	-4.372732E-11	-4.561431E-11	-4.975913E-11	-5.202517E-11	-5.188163E-11
2	3721752542.637656	1.235729	23.500000	27.137060	-3.710000E-9	5.366700E-12	-4.196178E-11	-4.637792E-11	-4.802608E-11	-5.277771E-11	-5.375186E-11	-5.470947E-11
3	3721752579.183767	1.220083	23.500000	27.141855	-3.720000E-9	5.386560E-12	-3.814324E-11	-4.132924E-11	-4.300055E-11	-4.612479E-11	-5.025573E-11	-5.300033E-11
4	3721752615.859386	1.213296	23.500000	27.147740	-3.710000E-9	5.394470E-12	-3.572348E-11	-3.993761E-11	-4.034017E-11	-4.235450E-11	-4.396122E-11	-4.450441E-11
5	3721752652.520405	1.206805	23.500000	27.158519	-3.720000E-9	5.398110E-12	-3.735779E-11	-3.833153E-11	-4.202965E-11	-4.367110E-11	-4.631310E-11	-4.922085E-11
6	3721752689.079091	1.212392	23.500000	27.162008	-3.720000E-9	5.399470E-12	-3.511732E-11	-3.867581E-11	-4.176390E-11	-4.508727E-11	-4.777813E-11	-4.978122E-11
7	3721752725.759601	1.213310	23.500000	27.170590	-3.710000E-9	5.399700E-12	-3.940527E-11	-4.093508E-11	-4.235227E-11	-4.448743E-11	-4.525452E-11	-4.826346E-11
8	3721752762.010345	1.216834	23.500000	27.179961	-3.720000E-9	5.399210E-12	-3.519275E-11	-3.740849E-11	-3.944431E-11	-4.064111E-11	-4.347568E-11	-4.432797E-11
9	3721752798.440014	1.209687	23.500000	27.191990	-3.720000E-9	5.399980E-12	-3.717953E-11	-3.790651E-11	-3.989777E-11	-4.130778E-11	-4.500388E-11	-4.422291E-11
10	3721752834.971585	1.206157	23.500000	27.198034	-3.710000E-9	5.399080E-12	-3.666351E-11	-3.960235E-11	-3.996543E-11	-4.274337E-11	-4.493129E-11	-4.672117E-11
11	3721752871.674146	1.210650	23.500000	27.204553	-3.710000E-9	5.399890E-12	-3.791898E-11	-4.060187E-11	-4.130596E-11	-4.187491E-11	-4.178311E-11	-4.586293E-11
12	3721752908.061153	1.205605	23.500000	27.216543	-3.710000E-9	5.400740E-12	-3.964876E-11	-3.886289E-11	-3.790366E-11	-4.158317E-11	-4.500490E-11	-4.506787E-11
13	3721752944.330419	1.215368	23.500000	27.221953	-3.710000E-9	5.400560E-12	-3.899966E-11	-3.981315E-11	-4.166719E-11	-4.209202E-11	-4.533444E-11	-4.659668E-11
14	3721752980.604467	1.207600	23.500000	27.228909	-3.720000E-9	5.399410E-12	-4.856401E-11	-4.775115E-11	-5.185426E-11	-4.938341E-11	-5.194647E-11	-5.601893E-11
15	3721753017.003632	1.203686	23.500000	27.235566	-3.710000E-9	5.397950E-12	-4.143598E-11	-4.269655E-11	-4.643494E-11	-4.740443E-11	-4.853865E-11	-5.125199E-11
16	3721753053.424298	1.210011	23.500000	27.245634	-3.710000E-9	5.398070E-12	-4.401664E-11	-4.571246E-11	-4.667313E-11	-4.576602E-11	-5.003167E-11	-5.147338E-11
17	3721753089.847980	1.200042	23.500000	27.249062	-3.710000E-9	5.399540E-12	-4.414687E-11	-4.709184E-11	-4.619658E-11	-4.789364E-11	-4.847528E-11	-5.236864E-11
18	3721753126.089106	1.206944	23.500000	27.258018	-3.710000E-9	5.398720E-12	-3.989021E-11	-4.227887E-11	-4.399537E-11	-4.450729E-11	-4.564195E-11	-4.833402E-11
19	3721753162.480814	1.198892	23.500000	27.261982	-3.710000E-9	5.401340E-12	-4.217768E-11	-4.359815E-11	-4.359221E-11	-4.658871E-11	-4.681503E-11	-4.896083E-11
20	3721753198.770388	1.192623	23.500000	27.269571	-3.710000E-9	5.400090E-12	-3.793494E-11	-3.943187E-11	-4.228606E-11	-4.339165E-11	-4.670463E-11	-4.684057E-11
21	3721753235.042086	1.185030	23.500000	27.279361	-3.710000E-9	5.398980E-12	-4.168846E-11	-4.427035E-11	-4.745166E-11	-4.812346E-11	-5.013312E-11	-5.176167E-11
22	3721753271.325657	1.194668	23.500000	27.283603	-3.710000E-9	5.399850E-12	-3.903523E-11	-4.223023E-11	-4.477817E-11	-4.492455E-11	-4.639737E-11	-4.944434E-11
23	3721753307.603111	1.198013	23.500000	27.292026	-3.710000E-9	5.400350E-12	-4.098521E-11	-9.385620E-11	-1.477772E-10	-1.930488E-10	-2.423380E-10	-2.891735E-10
24	3721753343.899690	1.183875	23.500000	27.301932	-3.700000E-9	5.400720E-12	-3.692500E-11	-8.810302E-11	-1.348535E-10	-1.852845E-10	-2.351903E-10	-2.839397E-10
25	3721753380.209153	1.184206	23.500000	27.306273	-3.710000E-9	5.399760E-12	-4.186450E-11	-9.466357E-11	-1.486943E-10	-2.111340E-10	-2.729618E-10	-3.390898E-10
26	3721753416.635899	1.176068	23.500000	27.316558	-3.710000E-9	5.401100E-12	-4.000553E-11	-1.393193E-10	-2.444309E-10	-3.521602E-10	-4.684772E-10	-5.879999E-10
27	3721753452.963453	1.185337	23.500000	27.323751	-3.710000E-9	5.401280E-12	-4.569407E-11	-1.828680E-10	-3.564138E-10	-4.851269E-10	-6.787316E-10	-8.566997E-10
28	3721753489.345026	1.182177	23.500000	27.333322	-3.680000E-9	5.410890E-12	-1.849012E-9	-3.356384E-7	-6.676486E-7	-5.529990E-7	-3.194361E-7	-4.096749E-7
29	3721753523.971051	1.180381	23.500000	27.340535	-3.740000E-9	5.411620E-12	-1.807041E-9	-3.300027E-7	-4.911169E-7	-6.228581E-7	-4.751965E-7	-2.404673E-7
30	3721753558.312392	1.180071	23.500000	27.346442	-3.690000E-9	5.411080E-12	-1.784176E-9	-3.363617E-7	-6.705995E-7	-1.003833E-6	-2.924656E-7	-8.862175E-8
31	3721753593.720074	1.173217	23.500000	27.355974	-3.700000E-9
#Open Capacitance 1000Hz:Not Measured
#Open Capacitance 1000000Hz:4.313240E-12
#37895_001_PSS_HM_XX_Unirrad_Interstrip
#Date/Time: 12/7/2021 3:28:25 PM
#Sensor Name: 37895_001_PSS_HM_XX
#Station: Tesla
#Annealing Status: Not Irradiated
#Environment: 23.5C
#Tester: Eric Spencer

#Notes: 

#Time Delay per Ramp Step (s): 0.000

#Time Delay per Measurement (s) :0.000

#Number of measurements per voltage: 0.000



Strip 	Time	RH	ChuckT	AirT	Global Current	Interstrip C	I_InterstripR_V-0.0	I_InterstripR_V-1.0	I_InterstripR_V-2.0	I_InterstripR_V-3.0	I_InterstripR_V-4.0	I_InterstripR_V-5.0
23	3721753775.445598	5.701343	23.500000	27.379377	-3.740000E-9	5.402600E-12	-4.120067E-11	-4.410373E-11	-4.441468E-11	-4.505438E-11	-4.665598E-11	-4.934539E-11
24	3721753811.089032	3.963992	23.500000	27.385857	-3.720000E-9	5.399680E-12	-4.117941E-11	-3.888108E-11	-4.170768E-11	-4.257082E-11	-4.384532E-11	-4.583880E-11
25	3721753847.355118	2.976655	23.500000	27.388670	-3.720000E-9	5.400280E-12	-4.053543E-11	-4.345320E-11	-4.368851E-11	-4.474977E-11	-4.544568E-11	-4.847017E-11
26	3721753883.932262	2.293910	23.500000	27.395210	-3.720000E-9	5.400970E-12	-3.737599E-11	-3.934782E-11	-4.026044E-11	-4.311894E-11	-4.456677E-11	-4.684076E-11
27	3721753920.593902	1.887719	23.500000	27.404423	-3.720000E-9	5.399960E-12	-4.081734E-11	-4.630084E-11	-4.790653E-11	-4.874819E-11	-5.010017E-11	-5.049412E-11
28	3721753956.885324	1.606455	23.500000	27.415106	-3.710000E-9	5.400110E-12	-4.263236E-11	-4.371017E-11	-4.533261E-11	-4.879032E-11	-5.079959E-11	-5.103203E-11
29	3721753993.149894	1.526290	23.500000	27.423309	-3.710000E-9	5.399520E-12	-4.336692E-11	-4.596720E-11	-4.643232E-11	-4.957170E-11	-5.176371E-11	-5.295602E-11
30	3721754029.592310	1.454083	23.500000	27.435260	-3.710000E-9	5.400220E-12	-3.934108E-11	-4.076502E-11	-4.241934E-11	-4.321195E-11	-4.647482E-11	-4.710655E-11
31	3721754065.828254	1.397228	23.500000	27.444374	-3.710000E-9	5.400220E-12	-3.900108E-11	-3.989083E-11	-4.181237E-11	-4.260254E-11	-4.500715E-11	-4.614855E-11
32	3721754102.366529	1.375079	23.500000	27.453312	-3.720000E-9	5.397840E-12	-4.380585E-11	-4.447541E-11	-4.457212E-11	-4.618577E-11	-4.931492E-11	-5.029378E-11
33	3721754139.034492	1.367208	23.500000	27.462309	-3.720000E-9	5.398970E-12	-4.149956E-11	-4.538453E-11	-4.527700E-11	-4.862534E-11	-4.756859E-11	-5.157317E-11
34	3721754175.571929	1.354016	23.500000	27.469977	-3.710000E-9	5.400200E-12	-4.253035E-11	-4.340677E-11	-4.513719E-11	-4.831072E-11	-4.863352E-11	-4.876865E-11
35	3721754212.124817	1.311050	23.500000	27.482719	-3.710000E-9	5.399770E-12	-4.011776E-11	-4.222861E-11	-4.373393E-11	-4.584495E-11	-4.726316E-11	-5.018215E-11
36	3721754248.798285	1.284119	23.500000	27.490668	-3.720000E-9	5.400820E-12	-4.083002E-11	-4.111030E-11	-4.604284E-11	-4.487796E-11	-4.663511E-11	-5.026784E-11
37	3721754285.346005	1.279655	23.500000	27.499919	-3.720000E-9	5.400640E-12	-3.717666E-11	-3.828310E-11	-3.825102E-11	-4.255346E-11	-4.345504E-11	-4.583740E-11
38	3721754321.906984	1.247712	23.500000	27.511951	-3.710000E-9	5.401530E-12	-3.503945E-11	-3.846832E-11	-4.232857E-11	-4.192867E-11	-4.482663E-11	-4.519257E-11
39	3721754358.474589	1.242454	23.500000	27.526694	-3.720000E-9	5.401080E-12	-3.975834E-11	-4.195158E-11	-4.170768E-11	-4.447601E-11	-4.740342E-11	-4.960770E-11
40	3721754394.757151	1.247647	23.500000	27.535966	-3.710000E-9	5.399430E-12	-4.248416E-11	-4.507668E-11	-4.535103E-11	-4.580754E-11	-4.715379E-11	-5.026108E-11
41	3721754431.074263	1.237405	23.500000	27.539039	-3.710000E-9	5.399940E-12	-4.091713E-11	-4.143272E-11	-4.349000E-11	-4.561579E-11	-4.583983E-11	-4.706381E-11
42	3721754467.501274	1.229892	23.500000	27.546530	-3.710000E-9	5.400410E-12	-4.034468E-11	-4.342949E-11	-4.315983E-11	-4.299710E-11	-4.627284E-11	-4.960810E-11
43	3721754503.887488	1.240282	23.500000	27.556556	-3.710000E-9	5.399640E-12	-4.855420E-11	-4.944660E-11	-5.265753E-11	-5.423051E-11	-5.477778E-11	-5.543468E-11
44	3721754540.164517	1.219795	23.500000	27.564483	-3.710000E-9	5.399860E-12	-4.449995E-11	-4.619702E-11	-4.651554E-11	-4.667682E-11	-5.110173E-11	-5.040052E-11
45	3721754576.396235	1.222886	23.500000	27.572964	-3.710000E-9	5.401150E-12	-4.803022E-11	-4.629881E-11	-4.961197E-11	-4.910252E-11	-5.186225E-11	-5.356791E-11
46	3721754612.675492	1.227268	23.500000	27.585706	-3.710000E-9	5.399670E-12	-4.247435E-11	-4.497690E-11	-4.660896E-11	-4.760193E-11	-5.165169E-11	-5.203399E-11
47	3721754648.963376	1.226202	23.500000	27.590166	-3.710000E-9	5.399240E-12	-3.691110E-11	-4.159892E-11	-4.326675E-11	-4.276220E-11	-4.539252E-11	-4.634115E-11
48	3721754685.244685	1.229400	23.500000	27.593613	-3.720000E-9	5.399560E-12	-4.051517E-11	-4.202092E-11	-4.191255E-11	-4.485487E-11	-4.728771E-11	-4.989738E-11
49	3721754721.801209	1.248511	23.500000	27.601878	-3.710000E-9	5.399900E-12	-4.185796E-11	-4.496712E-11	-4.550640E-11	-4.682360E-11	-4.889584E-11	-4.915466E-11
50	3721754758.101384	1.225806	23.500000	27.607187	-3.710000E-9	5.400700E-12	-3.963754E-11	-4.164186E-11	-4.400173E-11	-4.443351E-11	-4.640124E-11	-4.821669E-11
51	3721754794.531251	1.239931	23.500000	27.614660	-3.710000E-9	5.400550E-12	-4.168766E-11	-4.459705E-11	-4.506012E-11	-4.626304E-11	-4.734249E-11	-5.058306E-11
52	3721754830.977926	1.218248	23.500000	27.622387	-3.710000E-9	5.399240E-12	-4.478391E-11	-4.594309E-11	-4.652883E-11	-4.740220E-11	-4.916078E-11	-5.054179E-11
53	3721754867.261326	1.210054	23.500000	27.640579	-3.710000E-9	5.398220E-12	-4.113976E-11	-4.341785E-11	-4.514250E-11	-4.708939E-11	-4.735884E-11	-4.988860E-11
54	3721754903.577167	1.219423	23.500000	27.649932	-3.710000E-9	5.397720E-12	-4.158135E-11	-4.074233E-11	-4.178314E-11	-4.382224E-11	-4.520015E-11	-4.828067E-11
55	3721754940.015506	1.231055	23.500000	27.650348	-3.710000E-9	5.398970E-12	-4.290101E-11	-4.406634E-11	-4.642557E-11	-4.677985E-11	-4.973200E-11	-4.979640E-11
56	3721754976.344864	1.212669	23.500000	27.662873	-3.710000E-9	5.396880E-12	-4.197368E-11	-4.103448E-11	-4.374680E-11	-4.677558E-11	-4.743388E-11	-4.865480E-11
57	3721755012.768470	1.219415	23.500000	27.663805	-3.710000E-9	5.387570E-12	-4.155028E-11	-4.409271E-11	-4.360245E-11	-4.516131E-11	-4.631211E-11	-4.854869E-11
58	3721755049.044968	1.232604	23.500000	27.673275	-3.710000E-9	5.370930E-12	-3.992784E-11	-4.065706E-11	-4.213558E-11	-4.586008E-11	-4.633581E-11	-4.876886E-11
59	3721755085.489166	1.227286	23.500000	27.680847	-3.710000E-9	5.313660E-12	-4.302798E-11	-4.561967E-11	-4.451325E-11	-4.851497E-11	-4.870837E-11	-5.177435E-11
