GCD Test
Bias: 5000.000000
IV_38695_002_2-S_HM_XX_DIODEHALF
Date/Time: 2/9/2022 5:28:10 PM
Sensor Name: DIODEHALF
Type: P
Annealing Status: Unirradiated
Environment: 0C
Tester: Andrew Kent

Time Delay per Ramp Step (s): 0.500

CV Time Delay per Measurement (s) :0.500

AC Voltage (V): 0.500

Current Number of measurements per voltage: 1.000

IV Time Delay per Measurement (s) :0.000


BiasVoltage	Total Current_Avg	Total Current_0	Bias Current_Avg	Bias Current_0	Temperature	Air_Temp	Humidity	Dewpoint	
  -10.0000	-4.1900E-10	-4.1900E-10	-1.783864E-11	-1.783864E-11	    0.0819	   13.3905	   29.4105	   -4.0818	
  -20.0000	-1.8590E-9	-1.8590E-9	-1.854205E-11	-1.854205E-11	    0.0409	   13.3796	   29.3890	   -4.1009	
  -30.0000	-3.0110E-9	-3.0110E-9	-1.980852E-11	-1.980852E-11	    0.0128	   13.4023	   29.4051	   -4.0740	
  -40.0000	-4.1240E-9	-4.1240E-9	-2.197133E-11	-2.197133E-11	   -0.0230	   13.3981	   29.3893	   -4.0847	
  -50.0000	-4.6940E-9	-4.6940E-9	-2.269736E-11	-2.269736E-11	   -0.0691	   13.3981	   29.3741	   -4.0847	
  -60.0000	-5.3650E-9	-5.3650E-9	-2.400601E-11	-2.400601E-11	   -0.0691	   13.3982	   29.3741	   -4.0915	
  -70.0000	-5.5070E-9	-5.5070E-9	-2.437798E-11	-2.437798E-11	   -0.0921	   13.4079	   29.3593	   -4.0899	
  -80.0000	-5.3020E-9	-5.3020E-9	-2.375015E-11	-2.375015E-11	   -0.1100	   13.4079	   29.3634	   -4.0899	
  -90.0000	-5.1810E-9	-5.1810E-9	-2.445926E-11	-2.445926E-11	   -0.1100	   13.4079	   29.3634	   -4.0880	
 -100.0000	-5.2500E-9	-5.2500E-9	-2.475973E-11	-2.475973E-11	   -0.1049	   13.4107	   29.3542	   -4.0897	
 -110.0000	-5.3620E-9	-5.3620E-9	-2.516389E-11	-2.516389E-11	   -0.0870	   13.4007	   29.3621	   -4.0948	
 -120.0000	-5.6990E-9	-5.6990E-9	-2.493004E-11	-2.493004E-11	   -0.0461	   13.4007	   29.3548	   -4.0948	
 -130.0000	-6.2060E-9	-6.2060E-9	-2.528817E-11	-2.528817E-11	   -0.0461	   13.4043	   29.3548	   -4.0950	
 -140.0000	-7.1320E-9	-7.1320E-9	-2.564057E-11	-2.564057E-11	   -0.0026	   13.4046	   29.3621	   -4.0915	
 -150.0000	-8.4240E-9	-8.4240E-9	-2.562612E-11	-2.562612E-11	    0.0435	   13.4046	   29.3770	   -4.0915	
 -160.0000	-1.0635E-8	-1.0635E-8	-2.674959E-11	-2.674959E-11	    0.0435	   13.4046	   29.3770	   -4.0847	
 -170.0000	-1.2630E-8	-1.2630E-8	-2.686429E-11	-2.686429E-11	    0.0768	   13.4104	   29.3963	   -4.0709	
 -180.0000	-1.5540E-8	-1.5540E-8	-2.741592E-11	-2.741592E-11	    0.0972	   13.4141	   29.3918	   -4.0697	
 -190.0000	-1.8120E-8	-1.8120E-8	-2.784596E-11	-2.784596E-11	    0.1100	   13.4141	   29.4168	   -4.0697	
 -200.0000	-2.1390E-8	-2.1390E-8	-2.885474E-11	-2.885474E-11	    0.1100	   13.4041	   29.4168	   -4.0671	
 -210.0000	-2.4480E-8	-2.4480E-8	-3.038909E-11	-3.038909E-11	    0.1075	   13.4071	   29.4175	   -4.0643	
 -220.0000	-2.7110E-8	-2.7110E-8	-3.045061E-11	-3.045061E-11	    0.0870	   13.4071	   29.4175	   -4.0643	
 -230.0000	-2.9680E-8	-2.9680E-8	-3.060645E-11	-3.060645E-11	    0.0870	   13.3975	   29.4330	   -4.0656	
 -240.0000	-3.1500E-8	-3.1500E-8	-3.128868E-11	-3.128868E-11	    0.0614	   13.3975	   29.4307	   -4.0666	
 -250.0000	-3.2740E-8	-3.2740E-8	-3.135957E-11	-3.135957E-11	    0.0230	   13.3975	   29.4228	   -4.0666	
 -260.0000	-3.2940E-8	-3.2940E-8	-3.257389E-11	-3.257389E-11	    0.0230	   13.4241	   29.4228	   -4.0471	
 -270.0000	-3.2420E-8	-3.2420E-8	-3.274155E-11	-3.274155E-11	   -0.0102	   13.4091	   29.4225	   -4.0602	
 -280.0000	-3.1780E-8	-3.1780E-8	-3.284545E-11	-3.284545E-11	   -0.0486	   13.4091	   29.4213	   -4.0602	
 -290.0000	-2.9940E-8	-2.9940E-8	-3.284360E-11	-3.284360E-11	   -0.0486	   13.4010	   29.4213	   -4.0678	
 -300.0000	-2.8120E-8	-2.8120E-8	-3.274664E-11	-3.274664E-11	   -0.0768	   13.3993	   29.4304	   -4.0651	
 -310.0000	-2.5910E-8	-2.5910E-8	-3.337937E-11	-3.337937E-11	   -0.0972	   13.3993	   29.4304	   -4.0651	
 -320.0000	-2.4010E-8	-2.4010E-8	-3.360285E-11	-3.360285E-11	   -0.0972	   13.4098	   29.4228	   -4.0595	
 -330.0000	-2.2140E-8	-2.2140E-8	-3.343417E-11	-3.343417E-11	   -0.0972	   13.4098	   29.4301	   -4.0562	
 -340.0000	-2.1500E-8	-2.1500E-8	-3.412597E-11	-3.412597E-11	   -0.0896	   13.4098	   29.4323	   -4.0562	
 -350.0000	-2.0920E-8	-2.0920E-8	-3.423517E-11	-3.423517E-11	   -0.0896	   13.3990	   29.4323	   -4.0645	
 -360.0000	-2.0730E-8	-2.0730E-8	-3.452014E-11	-3.452014E-11	   -0.0691	   13.3943	   29.4390	   -4.0656	
 -370.0000	-2.1200E-8	-2.1200E-8	-3.470063E-11	-3.470063E-11	   -0.0461	   13.3943	   29.4589	   -4.0656	
 -380.0000	-2.2130E-8	-2.2130E-8	-3.562875E-11	-3.562875E-11	   -0.0461	   13.3882	   29.4589	   -4.0619	
 -390.0000	-2.3340E-8	-2.3340E-8	-3.575424E-11	-3.575424E-11	   -0.0179	   13.3924	   29.4633	   -4.0562	
 -400.0000	-2.4870E-8	-2.4870E-8	-3.601397E-11	-3.601397E-11	    0.0179	   13.3924	   29.4738	   -4.0562	
 -420.0000	-2.8380E-8	-2.8380E-8	-3.663976E-11	-3.663976E-11	    0.0179	   13.3954	   29.4738	   -4.0490	
 -440.0000	-3.2570E-8	-3.2570E-8	-3.698240E-11	-3.698240E-11	    0.0461	   13.3980	   29.4934	   -4.0378	
 -460.0000	-3.7250E-8	-3.7250E-8	-3.718653E-11	-3.718653E-11	    0.0768	   13.3980	   29.5051	   -4.0378	
 -480.0000	-4.3190E-8	-4.3190E-8	-3.696020E-11	-3.696020E-11	    0.0768	   13.3972	   29.5051	   -4.0333	
 -500.0000	-5.0760E-8	-5.0760E-8	-3.742262E-11	-3.742262E-11	    0.0870	   13.3978	   29.5054	   -4.0326	
 -520.0000	-5.7130E-8	-5.7130E-8	-3.774164E-11	-3.774164E-11	    0.0896	   13.3978	   29.5199	   -4.0326	
 -540.0000	-6.3710E-8	-6.3710E-8	-3.792071E-11	-3.792071E-11	    0.0896	   13.3813	   29.5199	   -4.0403	
 -560.0000	-7.0230E-8	-7.0230E-8	-3.813114E-11	-3.813114E-11	    0.0793	   13.3885	   29.5281	   -4.0304	
 -580.0000	-7.5450E-8	-7.5450E-8	-3.777588E-11	-3.777588E-11	    0.0588	   13.3885	   29.5281	   -4.0304	
 -600.0000	-7.9690E-8	-7.9690E-8	-3.785595E-11	-3.785595E-11	    0.0588	   13.3952	   29.5266	   -4.0253	
 -620.0000	-8.2560E-8	-8.2560E-8	-3.844405E-11	-3.844405E-11	    0.0384	   13.3952	   29.5272	   -4.0250	
 -640.0000	-8.4450E-8	-8.4450E-8	-3.871273E-11	-3.871273E-11	    0.0051	   13.3952	   29.5497	   -4.0250	
 -660.0000	-8.5200E-8	-8.5200E-8	-3.861820E-11	-3.861820E-11	    0.0051	   13.3829	   29.5497	   -4.0256	
 -680.0000	-8.3640E-8	-8.3640E-8	-3.955997E-11	-3.955997E-11	   -0.0230	   13.3947	   29.5471	   -4.0165	
 -700.0000	-8.1830E-8	-8.1830E-8	-3.932875E-11	-3.932875E-11	   -0.0512	   13.3947	   29.5522	   -4.0165	
 -720.0000	-7.8190E-8	-7.8190E-8	-3.974514E-11	-3.974514E-11	   -0.0512	   13.3809	   29.5522	   -4.0262	
 -740.0000	-7.3710E-8	-7.3710E-8	-3.994111E-11	-3.994111E-11	   -0.0614	   13.3740	   29.5503	   -4.0330	
 -760.0000	-7.2000E-8	-7.2000E-8	-4.017212E-11	-4.017212E-11	   -0.0793	   13.3740	   29.5503	   -4.0330	
 -780.0000	-6.9180E-8	-6.9180E-8	-4.045956E-11	-4.045956E-11	   -0.0793	   13.3695	   29.5493	   -4.0374	
 -800.0000	-6.5570E-8	-6.5570E-8	-4.071255E-11	-4.071255E-11	   -0.0844	   13.3695	   29.5553	   -4.0347	
 -820.0000	-6.3680E-8	-6.3680E-8	-4.065106E-11	-4.065106E-11	   -0.0768	   13.3695	   29.5727	   -4.0347	
 -840.0000	-6.2560E-8	-6.2560E-8	-4.125342E-11	-4.125342E-11	   -0.0768	   13.3779	   29.5727	   -4.0195	
 -860.0000	-6.2200E-8	-6.2200E-8	-4.224000E-11	-4.224000E-11	   -0.0665	   13.3574	   29.5911	   -4.0290	
 -880.0000	-6.2940E-8	-6.2940E-8	-4.229623E-11	-4.229623E-11	   -0.0384	   13.3574	   29.6104	   -4.0290	
 -900.0000	-6.5290E-8	-6.5290E-8	-4.281977E-11	-4.281977E-11	   -0.0384	   13.3812	   29.6104	   -3.9997	
 -920.0000	-6.9470E-8	-6.9470E-8	-4.304466E-11	-4.304466E-11	   -0.0154	   13.3811	   29.6237	   -3.9939	
 -940.0000	-7.4470E-8	-7.4470E-8	-4.438710E-11	-4.438710E-11	    0.0205	   13.3811	   29.6543	   -3.9939	
 -960.0000	-8.1990E-8	-8.1990E-8	-4.549021E-11	-4.549021E-11	    0.0205	   13.3751	   29.6543	   -3.9854	
 -980.0000	-9.3100E-8	-9.3100E-8	-4.466252E-11	-4.466252E-11	    0.0461	   13.3746	   29.6588	   -3.9838	
-1000.0000	-9.9900E-8	-9.9900E-8	0.000000E+0	0.000000E+0	    0.0000	    0.0000	    0.0000	    0.0000	
