GCD Test
Bias: 5000.000000
IV_38695_002_2-S_HM_XX_DIODEHALFPSTOP_GR_Irradiated_Annealed_60C_80min
Date/Time: 3/20/2022 5:00:45 PM
Sensor Name: 
Type: P
Annealing Status: Irradiated and Annealed at 60C for 80 minutes
Environment: -20C
Tester: Andrew Kent

Time Delay per Ramp Step (s): 1.000

CV Time Delay per Measurement (s) :0.500

AC Voltage (V): 0.500

Current Number of measurements per voltage: 4.000

IV Time Delay per Measurement (s) :0.000


BiasVoltage	Total Current_Avg	Total Current_0	Total Current_1	Total Current_2	Total Current_3	Bias Current_Avg	Bias Current_0	Bias Current_1	Bias Current_2	Bias Current_3	Temperature	Air_Temp	Humidity	Dewpoint	
  -10.0000	-3.3277E-7	-3.3380E-7	-3.3400E-7	-3.3230E-7	-3.3100E-7	-1.828221E-7	-1.825770E-7	-1.826256E-7	-1.829384E-7	-1.831474E-7	  -19.7693	    7.7779	    6.8941	  -26.0612	
  -20.0000	-4.4450E-7	-4.4460E-7	-4.4520E-7	-4.4460E-7	-4.4360E-7	-2.433337E-7	-2.431345E-7	-2.435300E-7	-2.432721E-7	-2.433982E-7	  -19.8812	    7.7882	    6.6676	  -26.4176	
  -30.0000	-5.2687E-7	-5.2820E-7	-5.2650E-7	-5.2560E-7	-5.2720E-7	-2.908580E-7	-2.911699E-7	-2.911607E-7	-2.909121E-7	-2.901893E-7	  -20.0465	    7.8467	    6.3498	  -26.9045	
  -40.0000	-5.9645E-7	-5.9960E-7	-5.9780E-7	-5.9470E-7	-5.9370E-7	-3.300965E-7	-3.301003E-7	-3.300554E-7	-3.300864E-7	-3.301439E-7	  -20.1127	    7.8467	    6.2745	  -27.0335	
  -50.0000	-6.5412E-7	-6.5710E-7	-6.5470E-7	-6.5380E-7	-6.5090E-7	-3.613549E-7	-3.615195E-7	-3.614792E-7	-3.620468E-7	-3.603740E-7	  -20.2068	    7.8542	    6.1556	  -27.2348	
  -60.0000	-7.0472E-7	-7.0570E-7	-7.0520E-7	-7.0300E-7	-7.0500E-7	-3.937257E-7	-3.929486E-7	-3.947053E-7	-3.935245E-7	-3.937245E-7	  -20.2780	    7.8669	    6.0844	  -27.3509	
  -70.0000	-7.5640E-7	-7.5570E-7	-7.5540E-7	-7.5790E-7	-7.5660E-7	-4.229677E-7	-4.232006E-7	-4.239785E-7	-4.229792E-7	-4.217125E-7	  -20.3721	    7.8780	    5.9314	  -27.6172	
  -80.0000	-8.0168E-7	-8.0460E-7	-8.0420E-7	-8.0050E-7	-7.9740E-7	-4.453964E-7	-4.471267E-7	-4.455049E-7	-4.452833E-7	-4.436709E-7	  -20.4153	    7.8780	    5.8972	  -27.6793	
  -90.0000	-8.3500E-7	-8.3730E-7	-8.3460E-7	-8.3360E-7	-8.3450E-7	-4.654402E-7	-4.659997E-7	-4.652280E-7	-4.647032E-7	-4.658300E-7	  -20.4611	    7.9483	    5.8675	  -27.6822	
 -100.0000	-8.6693E-7	-8.6750E-7	-8.6550E-7	-8.6760E-7	-8.6710E-7	-4.875317E-7	-4.884794E-7	-4.868409E-7	-4.873828E-7	-4.874237E-7	  -20.4942	    7.9254	    5.8520	  -27.7274	
 -110.0000	-9.1005E-7	-9.1150E-7	-9.0880E-7	-9.1150E-7	-9.0840E-7	-5.116179E-7	-5.110769E-7	-5.116901E-7	-5.124360E-7	-5.112688E-7	  -20.5451	    7.9114	    5.8330	  -27.7725	
 -120.0000	-9.4555E-7	-9.4780E-7	-9.4390E-7	-9.4620E-7	-9.4430E-7	-5.299460E-7	-5.318605E-7	-5.302251E-7	-5.292664E-7	-5.284318E-7	  -20.5629	    7.9114	    5.8210	  -27.7947	
 -130.0000	-9.6933E-7	-9.7060E-7	-9.7000E-7	-9.6790E-7	-9.6880E-7	-5.445361E-7	-5.462480E-7	-5.445747E-7	-5.432797E-7	-5.440419E-7	  -20.5807	    7.9211	    5.7688	  -27.8842	
 -140.0000	-9.9150E-7	-1.0000E-6	-9.9500E-7	-9.8700E-7	-9.8400E-7	-5.569942E-7	-5.571545E-7	-5.573376E-7	-5.571785E-7	-5.563062E-7	  -20.5756	    7.8954	    5.7353	  -27.9656	
 -150.0000	-1.0240E-6	-1.0300E-6	-1.0240E-6	-1.0200E-6	-1.0220E-6	-5.777004E-7	-5.785576E-7	-5.775661E-7	-5.783384E-7	-5.763395E-7	  -20.5603	    7.9276	    5.7027	  -28.0030	
 -160.0000	-1.0453E-6	-1.0480E-6	-1.0470E-6	-1.0440E-6	-1.0420E-6	-5.893704E-7	-5.891821E-7	-5.893780E-7	-5.895114E-7	-5.894100E-7	  -20.5603	    7.9276	    5.6973	  -28.0132	
 -170.0000	-1.0687E-6	-1.0700E-6	-1.0690E-6	-1.0680E-6	-1.0680E-6	-6.057948E-7	-6.063829E-7	-6.061043E-7	-6.065407E-7	-6.041514E-7	  -20.5400	    7.9661	    5.6777	  -28.0220	
 -180.0000	-1.0917E-6	-1.0930E-6	-1.0950E-6	-1.0890E-6	-1.0900E-6	-6.165321E-7	-6.195735E-7	-6.175233E-7	-6.155723E-7	-6.134593E-7	  -20.5120	    7.9528	    5.6638	  -28.0580	
 -190.0000	-1.1137E-6	-1.1120E-6	-1.1160E-6	-1.1140E-6	-1.1130E-6	-6.267177E-7	-6.290364E-7	-6.269143E-7	-6.253385E-7	-6.255818E-7	  -20.4916	    7.9344	    5.6373	  -28.1218	
 -200.0000	-1.1293E-6	-1.1340E-6	-1.1310E-6	-1.1270E-6	-1.1250E-6	-6.367637E-7	-6.378952E-7	-6.383054E-7	-6.362010E-7	-6.346532E-7	  -20.4408	    7.9344	    5.6350	  -28.1260	
 -210.0000	-1.1413E-6	-1.1400E-6	-1.1420E-6	-1.1400E-6	-1.1430E-6	-6.486182E-7	-6.491508E-7	-6.489578E-7	-6.485917E-7	-6.477723E-7	  -20.4128	    7.9089	    5.6392	  -28.1368	
 -220.0000	-1.1620E-6	-1.1640E-6	-1.1650E-6	-1.1600E-6	-1.1590E-6	-6.581120E-7	-6.582497E-7	-6.571369E-7	-6.579086E-7	-6.591526E-7	  -20.3416	    7.8901	    5.6651	  -28.1013	
 -230.0000	-1.1845E-6	-1.1900E-6	-1.1880E-6	-1.1800E-6	-1.1800E-6	-6.679405E-7	-6.683846E-7	-6.686220E-7	-6.678798E-7	-6.668755E-7	  -20.3111	    7.9177	    5.6483	  -28.1130	
 -240.0000	-1.2028E-6	-1.2020E-6	-1.2040E-6	-1.2020E-6	-1.2030E-6	-6.788445E-7	-6.795416E-7	-6.791664E-7	-6.781319E-7	-6.785381E-7	  -20.2729	    7.9682	    5.6316	  -28.1080	
 -250.0000	-1.2117E-6	-1.2090E-6	-1.2080E-6	-1.2120E-6	-1.2180E-6	-6.904326E-7	-6.906624E-7	-6.912928E-7	-6.905841E-7	-6.891913E-7	  -20.1966	    8.0004	    5.6705	  -28.0108	
 -260.0000	-1.2260E-6	-1.2310E-6	-1.2280E-6	-1.2240E-6	-1.2210E-6	-6.918078E-7	-6.903311E-7	-6.912696E-7	-6.941374E-7	-6.914931E-7	  -20.1457	    7.9754	    5.6879	  -27.9962	
 -270.0000	-1.2400E-6	-1.2360E-6	-1.2370E-6	-1.2420E-6	-1.2450E-6	-6.992769E-7	-7.008972E-7	-6.999188E-7	-6.982638E-7	-6.980279E-7	  -20.1025	    7.9528	    5.7065	  -27.9776	
 -280.0000	-1.2515E-6	-1.2510E-6	-1.2500E-6	-1.2520E-6	-1.2530E-6	-7.061254E-7	-7.059676E-7	-7.055967E-7	-7.070764E-7	-7.058609E-7	  -20.0694	    7.9532	    5.6951	  -27.9986	
 -290.0000	-1.2637E-6	-1.2640E-6	-1.2640E-6	-1.2620E-6	-1.2650E-6	-7.131647E-7	-7.142907E-7	-7.142779E-7	-7.123253E-7	-7.117649E-7	  -20.0033	    7.9200	    5.6752	  -28.0605	
 -300.0000	-1.2820E-6	-1.2790E-6	-1.2780E-6	-1.2830E-6	-1.2880E-6	-7.286944E-7	-7.301615E-7	-7.275264E-7	-7.279934E-7	-7.290963E-7	  -19.9295	    7.9611	    5.6638	  -28.0520	
 -310.0000	-1.3078E-6	-1.3090E-6	-1.3090E-6	-1.3070E-6	-1.3060E-6	-7.339528E-7	-7.364789E-7	-7.348270E-7	-7.326843E-7	-7.318209E-7	  -19.8838	    8.0156	    5.6815	  -27.9788	
 -320.0000	-1.2985E-6	-1.3020E-6	-1.3000E-6	-1.2990E-6	-1.2930E-6	-7.293671E-7	-7.283020E-7	-7.282578E-7	-7.306464E-7	-7.302622E-7	  -19.8609	    7.9788	    5.6682	  -28.0307	
 -330.0000	-1.3153E-6	-1.3100E-6	-1.3130E-6	-1.3170E-6	-1.3210E-6	-7.412132E-7	-7.433769E-7	-7.411202E-7	-7.408589E-7	-7.394968E-7	  -19.8481	    8.0229	    5.6455	  -28.0417	
 -340.0000	-1.3165E-6	-1.3170E-6	-1.3140E-6	-1.3170E-6	-1.3180E-6	-7.429988E-7	-7.432118E-7	-7.439817E-7	-7.424144E-7	-7.423871E-7	  -19.8151	    8.0583	    5.6385	  -28.0291	
 -350.0000	-1.3353E-6	-1.3340E-6	-1.3370E-6	-1.3360E-6	-1.3340E-6	-7.469940E-7	-7.475081E-7	-7.484500E-7	-7.465134E-7	-7.455046E-7	  -19.7896	    8.0521	    5.6509	  -28.0102	
 -360.0000	-1.3405E-6	-1.3390E-6	-1.3370E-6	-1.3410E-6	-1.3450E-6	-7.540625E-7	-7.545393E-7	-7.543211E-7	-7.532539E-7	-7.541355E-7	  -19.7947	    8.0439	    5.6641	  -27.9910	
 -370.0000	-1.3535E-6	-1.3560E-6	-1.3530E-6	-1.3510E-6	-1.3540E-6	-7.596279E-7	-7.582757E-7	-7.573805E-7	-7.600974E-7	-7.627579E-7	  -19.7871	    8.0734	    5.6701	  -27.9581	
 -380.0000	-1.3773E-6	-1.3760E-6	-1.3750E-6	-1.3790E-6	-1.3790E-6	-7.711757E-7	-7.706384E-7	-7.716299E-7	-7.705439E-7	-7.718907E-7	  -19.7871	    8.0820	    5.6891	  -27.9160	
 -390.0000	-1.3835E-6	-1.3900E-6	-1.3810E-6	-1.3820E-6	-1.3810E-6	-7.696815E-7	-7.697856E-7	-7.708331E-7	-7.698595E-7	-7.682478E-7	  -19.7718	    8.0699	    5.7609	  -27.7902	
 -400.0000	-1.3775E-6	-1.3750E-6	-1.3780E-6	-1.3780E-6	-1.3790E-6	-7.706305E-7	-7.716707E-7	-7.709309E-7	-7.704163E-7	-7.695039E-7	  -19.7871	    8.0790	    5.7761	  -27.7553	
 -410.0000	-1.3982E-6	-1.3930E-6	-1.3970E-6	-1.3980E-6	-1.4050E-6	-7.850689E-7	-7.860303E-7	-7.853759E-7	-7.842077E-7	-7.846618E-7	  -19.7947	    8.1002	    5.7812	  -27.7304	
 -420.0000	-1.4095E-6	-1.4080E-6	-1.4150E-6	-1.4090E-6	-1.4060E-6	-7.831647E-7	-7.852850E-7	-7.836085E-7	-7.825819E-7	-7.811835E-7	  -19.8024	    8.1477	    5.7713	  -27.7139	
 -430.0000	-1.4007E-6	-1.3970E-6	-1.3990E-6	-1.4010E-6	-1.4060E-6	-7.830589E-7	-7.830014E-7	-7.841496E-7	-7.833677E-7	-7.817169E-7	  -19.8354	    8.1147	    5.7590	  -27.7610	
 -440.0000	-1.4145E-6	-1.4130E-6	-1.4160E-6	-1.4160E-6	-1.4130E-6	-7.847140E-7	-7.839343E-7	-7.856611E-7	-7.854015E-7	-7.838590E-7	  -19.8558	    8.1449	    5.7391	  -27.7762	
 -450.0000	-1.4292E-6	-1.4240E-6	-1.4290E-6	-1.4310E-6	-1.4330E-6	-7.930045E-7	-7.931016E-7	-7.926838E-7	-7.933180E-7	-7.929144E-7	  -19.8736	    8.1370	    5.7426	  -27.7755	
 -460.0000	-1.4415E-6	-1.4410E-6	-1.4430E-6	-1.4420E-6	-1.4400E-6	-7.932815E-7	-7.957683E-7	-7.941513E-7	-7.925175E-7	-7.906889E-7	  -19.8812	    8.2037	    5.7596	  -27.6949	
 -470.0000	-1.4338E-6	-1.4330E-6	-1.4310E-6	-1.4340E-6	-1.4370E-6	-7.964348E-7	-7.976758E-7	-7.976232E-7	-7.965904E-7	-7.938499E-7	  -19.9168	    8.1995	    5.7853	  -27.6502	
 -480.0000	-1.4395E-6	-1.4390E-6	-1.4390E-6	-1.4410E-6	-1.4390E-6	-7.941965E-7	-7.962478E-7	-7.941800E-7	-7.942720E-7	-7.920863E-7	  -19.9524	    8.2773	    5.7941	  -27.5768	
 -490.0000	-1.4325E-6	-1.4320E-6	-1.4330E-6	-1.4340E-6	-1.4310E-6	-7.896742E-7	-7.914417E-7	-7.903765E-7	-7.892688E-7	-7.876097E-7	  -19.9473	    8.2773	    5.7963	  -27.5727	
 -500.0000	-1.4270E-6	-1.4270E-6	-1.4280E-6	-1.4260E-6	-1.4270E-6	-7.912272E-7	-7.893415E-7	-7.904215E-7	-7.926313E-7	-7.925146E-7	  -19.9880	    8.2959	    5.8172	  -27.5205	
 -510.0000	-1.4485E-6	-1.4450E-6	-1.4480E-6	-1.4500E-6	-1.4510E-6	-8.031373E-7	-8.002993E-7	-8.037959E-7	-8.037712E-7	-8.046827E-7	  -20.0084	    8.2731	    5.8046	  -27.5605	
 -520.0000	-1.4542E-6	-1.4600E-6	-1.4560E-6	-1.4520E-6	-1.4490E-6	-7.971990E-7	-7.965259E-7	-7.965192E-7	-7.986953E-7	-7.970555E-7	  -20.0465	    8.2546	    5.7546	  -27.6671	
 -530.0000	-1.4470E-6	-1.4520E-6	-1.4470E-6	-1.4440E-6	-1.4450E-6	-7.979354E-7	-7.987629E-7	-7.989440E-7	-7.972600E-7	-7.967747E-7	  -20.0618	    8.2546	    5.7593	  -27.6582	
 -540.0000	-1.4560E-6	-1.4560E-6	-1.4560E-6	-1.4560E-6	-1.4560E-6	-8.022703E-7	-8.017994E-7	-8.028762E-7	-8.011918E-7	-8.032138E-7	  -20.0694	    8.2555	    5.7698	  -27.6381	
 -550.0000	-1.4648E-6	-1.4650E-6	-1.4660E-6	-1.4640E-6	-1.4640E-6	-8.020184E-7	-8.033157E-7	-8.017946E-7	-8.017419E-7	-8.012214E-7	  -20.0720	    8.3551	    5.7707	  -27.5636	
 -560.0000	-1.4682E-6	-1.4660E-6	-1.4660E-6	-1.4700E-6	-1.4710E-6	-8.072327E-7	-8.056537E-7	-8.071388E-7	-8.082563E-7	-8.078820E-7	  -20.1076	    8.4204	    5.7717	  -27.5141	
 -570.0000	-1.4827E-6	-1.4830E-6	-1.4800E-6	-1.4840E-6	-1.4840E-6	-8.100433E-7	-8.115667E-7	-8.100810E-7	-8.090411E-7	-8.094843E-7	  -20.1127	    8.4204	    5.7783	  -27.5017	
 -580.0000	-1.4782E-6	-1.4780E-6	-1.4830E-6	-1.4780E-6	-1.4740E-6	-8.084817E-7	-8.077568E-7	-8.074587E-7	-8.090842E-7	-8.096272E-7	  -20.1152	    8.3750	    5.8185	  -27.4603	
 -590.0000	-1.4795E-6	-1.4760E-6	-1.4790E-6	-1.4810E-6	-1.4820E-6	-8.095127E-7	-8.089518E-7	-8.094048E-7	-8.098053E-7	-8.098889E-7	  -20.1203	    8.4381	    5.8697	  -27.3196	
 -600.0000	-1.4898E-6	-1.4950E-6	-1.4910E-6	-1.4850E-6	-1.4880E-6	-8.154479E-7	-8.155453E-7	-8.146613E-7	-8.162613E-7	-8.153237E-7	  -20.1254	    8.4984	    5.9405	  -27.1460	
 -610.0000	-1.4887E-6	-1.4940E-6	-1.4880E-6	-1.4870E-6	-1.4860E-6	-8.130735E-7	-8.119836E-7	-8.118114E-7	-8.139965E-7	-8.145026E-7	  -20.1254	    8.4984	    5.9927	  -27.0514	
 -620.0000	-1.4963E-6	-1.4980E-6	-1.5030E-6	-1.4960E-6	-1.4880E-6	-8.112171E-7	-8.119706E-7	-8.119471E-7	-8.104644E-7	-8.104861E-7	  -20.1203	    8.5303	    6.0398	  -26.9432	
 -630.0000	-1.4867E-6	-1.4860E-6	-1.4850E-6	-1.4840E-6	-1.4920E-6	-8.152677E-7	-8.145774E-7	-8.136835E-7	-8.158194E-7	-8.169906E-7	  -20.1178	    8.4811	    6.0408	  -26.9777	
 -640.0000	-1.5078E-6	-1.5100E-6	-1.5070E-6	-1.5060E-6	-1.5080E-6	-8.228318E-7	-8.199931E-7	-8.221036E-7	-8.245972E-7	-8.246333E-7	  -20.1051	    8.6226	    6.0645	  -26.8314	
 -650.0000	-1.5110E-6	-1.5140E-6	-1.5110E-6	-1.5100E-6	-1.5090E-6	-8.206987E-7	-8.198287E-7	-8.218280E-7	-8.204983E-7	-8.206399E-7	  -20.0974	    8.6226	    6.0636	  -26.8331	
 -660.0000	-1.5137E-6	-1.5130E-6	-1.5170E-6	-1.5150E-6	-1.5100E-6	-8.193154E-7	-8.202508E-7	-8.193496E-7	-8.194009E-7	-8.182603E-7	  -20.0847	    8.6094	    6.0427	  -26.8801	
 -670.0000	-1.5147E-6	-1.5170E-6	-1.5170E-6	-1.5130E-6	-1.5120E-6	-8.201905E-7	-8.185996E-7	-8.209549E-7	-8.201486E-7	-8.210587E-7	  -20.0822	    8.6871	    6.0449	  -26.8192	
 -680.0000	-1.5123E-6	-1.5110E-6	-1.5110E-6	-1.5140E-6	-1.5130E-6	-8.164458E-7	-8.171455E-7	-8.160325E-7	-8.160910E-7	-8.165141E-7	  -20.0796	    8.7025	    6.0187	  -26.8550	
 -690.0000	-1.5168E-6	-1.5180E-6	-1.5160E-6	-1.5160E-6	-1.5170E-6	-8.189797E-7	-8.201982E-7	-8.179948E-7	-8.192781E-7	-8.184477E-7	  -20.0694	    8.7490	    6.0300	  -26.8004	
 -700.0000	-1.5107E-6	-1.5110E-6	-1.5100E-6	-1.5100E-6	-1.5120E-6	-8.174756E-7	-8.178942E-7	-8.174788E-7	-8.178367E-7	-8.166929E-7	  -20.0542	    8.8023	    6.0300	  -26.7613	
 -710.0000	-1.5135E-6	-1.5120E-6	-1.5140E-6	-1.5150E-6	-1.5130E-6	-8.175669E-7	-8.168324E-7	-8.177512E-7	-8.174860E-7	-8.181979E-7	  -20.0415	    8.8456	    6.0313	  -26.7273	
 -720.0000	-1.5172E-6	-1.5210E-6	-1.5170E-6	-1.5160E-6	-1.5150E-6	-8.212531E-7	-8.207733E-7	-8.220698E-7	-8.217253E-7	-8.204440E-7	  -20.0364	    8.8696	    6.0718	  -26.6370	
 -730.0000	-1.5177E-6	-1.5180E-6	-1.5140E-6	-1.5170E-6	-1.5220E-6	-8.219608E-7	-8.220015E-7	-8.230203E-7	-8.214807E-7	-8.213408E-7	  -20.0313	    8.8952	    6.1040	  -26.5607	
 -740.0000	-1.5230E-6	-1.5260E-6	-1.5210E-6	-1.5210E-6	-1.5240E-6	-8.223431E-7	-8.231303E-7	-8.230941E-7	-8.216243E-7	-8.215237E-7	  -20.0109	    8.9747	    6.1091	  -26.4934	
 -750.0000	-1.5295E-6	-1.5300E-6	-1.5330E-6	-1.5280E-6	-1.5270E-6	-8.238244E-7	-8.250549E-7	-8.234872E-7	-8.231329E-7	-8.236227E-7	  -19.9906	    8.9356	    6.1205	  -26.5018	
 -760.0000	-1.5325E-6	-1.5340E-6	-1.5300E-6	-1.5320E-6	-1.5340E-6	-8.280597E-7	-8.285641E-7	-8.283811E-7	-8.279180E-7	-8.273755E-7	  -19.9931	    8.9613	    6.1344	  -26.4582	
 -770.0000	-1.5330E-6	-1.5360E-6	-1.5350E-6	-1.5320E-6	-1.5290E-6	-8.230746E-7	-8.219420E-7	-8.243831E-7	-8.231357E-7	-8.228377E-7	  -19.9830	    8.9624	    6.1471	  -26.4350	
 -780.0000	-1.5370E-6	-1.5410E-6	-1.5370E-6	-1.5360E-6	-1.5340E-6	-8.229845E-7	-8.230750E-7	-8.222458E-7	-8.232777E-7	-8.233397E-7	  -19.9677	    8.9500	    6.1989	  -26.3527	
 -790.0000	-1.5497E-6	-1.5470E-6	-1.5520E-6	-1.5500E-6	-1.5500E-6	-8.302044E-7	-8.309648E-7	-8.299435E-7	-8.292897E-7	-8.306195E-7	  -19.9626	    8.9654	    6.2207	  -26.3031	
 -800.0000	-1.5470E-6	-1.5520E-6	-1.5490E-6	-1.5450E-6	-1.5420E-6	-8.269566E-7	-8.253775E-7	-8.263109E-7	-8.265635E-7	-8.295743E-7	  -19.9575	    8.9642	    6.2271	  -26.2929	
 -810.0000	-1.5510E-6	-1.5440E-6	-1.5500E-6	-1.5560E-6	-1.5540E-6	-8.315874E-7	-8.318228E-7	-8.307871E-7	-8.317730E-7	-8.319668E-7	  -19.9524	    8.9848	    6.1904	  -26.3421	
 -820.0000	-1.5557E-6	-1.5580E-6	-1.5570E-6	-1.5540E-6	-1.5540E-6	-8.364437E-7	-8.333295E-7	-8.357705E-7	-8.382836E-7	-8.383911E-7	  -19.9524	    9.0267	    6.2201	  -26.2591	
 -830.0000	-1.5645E-6	-1.5640E-6	-1.5640E-6	-1.5650E-6	-1.5650E-6	-8.347075E-7	-8.363074E-7	-8.352247E-7	-8.343008E-7	-8.329972E-7	  -19.9473	    9.0488	    6.2328	  -26.2207	
 -840.0000	-1.5603E-6	-1.5640E-6	-1.5610E-6	-1.5580E-6	-1.5580E-6	-8.345914E-7	-8.350637E-7	-8.348185E-7	-8.342921E-7	-8.341913E-7	  -19.9499	    9.0484	    6.2998	  -26.1043	
 -850.0000	-1.5567E-6	-1.5570E-6	-1.5550E-6	-1.5560E-6	-1.5590E-6	-8.343138E-7	-8.337654E-7	-8.341300E-7	-8.348337E-7	-8.345261E-7	  -19.9499	    9.0423	    6.3355	  -26.0471	
 -860.0000	-1.5695E-6	-1.5680E-6	-1.5700E-6	-1.5690E-6	-1.5710E-6	-8.375216E-7	-8.383907E-7	-8.375050E-7	-8.374749E-7	-8.367159E-7	  -19.9550	    9.0472	    6.3469	  -26.0239	
 -870.0000	-1.5800E-6	-1.5760E-6	-1.5760E-6	-1.5850E-6	-1.5830E-6	-8.406647E-7	-8.427832E-7	-8.412835E-7	-8.401122E-7	-8.384799E-7	  -19.9575	    9.0787	    6.3498	  -25.9957	
 -880.0000	-1.5770E-6	-1.5740E-6	-1.5780E-6	-1.5810E-6	-1.5750E-6	-8.362399E-7	-8.375071E-7	-8.360467E-7	-8.356160E-7	-8.357898E-7	  -19.9601	    9.0742	    6.3431	  -26.0105	
 -890.0000	-1.5792E-6	-1.5790E-6	-1.5800E-6	-1.5800E-6	-1.5780E-6	-8.399638E-7	-8.379583E-7	-8.393604E-7	-8.404892E-7	-8.420471E-7	  -19.9702	    9.1207	    6.3624	  -25.9430	
 -900.0000	-1.5860E-6	-1.5850E-6	-1.5830E-6	-1.5870E-6	-1.5890E-6	-8.445636E-7	-8.456869E-7	-8.450019E-7	-8.445228E-7	-8.430426E-7	  -19.9728	    9.1207	    6.3719	  -25.9267	
 -910.0000	-1.5813E-6	-1.5840E-6	-1.5800E-6	-1.5790E-6	-1.5820E-6	-8.396827E-7	-8.406799E-7	-8.401133E-7	-8.387245E-7	-8.392129E-7	  -19.9779	    9.1056	    6.3991	  -25.8913	
 -920.0000	-1.5800E-6	-1.5800E-6	-1.5800E-6	-1.5780E-6	-1.5820E-6	-8.395605E-7	-8.403441E-7	-8.397702E-7	-8.393625E-7	-8.387651E-7	  -19.9906	    9.1056	    6.4194	  -25.8568	
 -930.0000	-1.5847E-6	-1.5840E-6	-1.5840E-6	-1.5850E-6	-1.5860E-6	-8.410652E-7	-8.421728E-7	-8.409128E-7	-8.410691E-7	-8.401061E-7	  -19.9982	    9.1019	    6.4798	  -25.7571	
 -940.0000	-1.5925E-6	-1.5890E-6	-1.5960E-6	-1.5930E-6	-1.5920E-6	-8.438900E-7	-8.434659E-7	-8.438607E-7	-8.441767E-7	-8.440567E-7	  -20.0008	    9.1019	    6.5177	  -25.6931	
 -950.0000	-1.5950E-6	-1.5950E-6	-1.5950E-6	-1.5970E-6	-1.5930E-6	-8.428819E-7	-8.436675E-7	-8.436662E-7	-8.424843E-7	-8.417097E-7	  -19.9982	    9.1199	    6.5338	  -25.6527	
 -960.0000	-1.5978E-6	-1.5960E-6	-1.5980E-6	-1.6000E-6	-1.5970E-6	-8.466653E-7	-8.451385E-7	-8.468232E-7	-8.473789E-7	-8.473206E-7	  -20.0008	    9.0925	    6.5636	  -25.6232	
 -970.0000	-1.6040E-6	-1.6060E-6	-1.6050E-6	-1.6020E-6	-1.6030E-6	-8.482509E-7	-8.479950E-7	-8.487570E-7	-8.478463E-7	-8.484054E-7	  -20.0109	    9.1299	    6.5623	  -25.5976	
 -980.0000	-1.6102E-6	-1.6140E-6	-1.6110E-6	-1.6100E-6	-1.6060E-6	-8.488668E-7	-8.481364E-7	-8.477351E-7	-8.486282E-7	-8.509675E-7	  -20.0186	    9.1299	    6.5683	  -25.5876	
 -990.0000	-1.6145E-6	-1.6160E-6	-1.6130E-6	-1.6130E-6	-1.6160E-6	-8.530693E-7	-8.544837E-7	-8.530650E-7	-8.527821E-7	-8.519464E-7	  -20.0237	    9.1422	    6.5889	  -25.5442	
-1000.0000	-1.6187E-6	-1.6210E-6	-1.6180E-6	-1.6190E-6	-1.6170E-6	-8.512289E-7	-8.524302E-7	-8.519634E-7	-8.506931E-7	-8.498290E-7	  -20.0135	    9.1370	    6.5955	  -25.5370	
