GCD Test
Bias: 5000.000000
IV_34254_025_PSS_HM_XX_DIODE
Date/Time: 4/12/2021 6:02:29 PM
Sensor Name: DIODE
Type: P
Annealing Status: Not Irradiated
Environment: RT
Tester: Andrew Kent

Time Delay per Ramp Step (s): 0.500

CV Time Delay per Measurement (s) :0.500

AC Voltage (V): 0.500

Current Number of measurements per voltage: 4.000

IV Time Delay per Measurement (s) :0.000


BiasVoltage	Total Current_Avg	Total Current_0	Total Current_1	Total Current_2	Total Current_3	Bias Current_Avg	Bias Current_0	Bias Current_1	Bias Current_2	Bias Current_3	Temperature	Air_Temp	Humidity	Dewpoint	
   -5.0000	-5.8000E-11	-2.8200E-10	-1.7300E-10	2.1300E-10	1.0000E-11	-1.625495E-10	-1.500211E-10	-1.610500E-10	-1.782672E-10	-1.608598E-10	   23.3335	   23.5641	    6.7160	  -14.7290	
  -10.0000	-9.6250E-11	1.1100E-10	4.0000E-12	-8.8000E-11	-4.1200E-10	-1.669867E-10	-1.677128E-10	-1.673993E-10	-1.665618E-10	-1.662730E-10	   23.3310	   23.5642	    6.6123	  -14.9173	
  -15.0000	-2.2475E-10	4.5000E-11	-1.2100E-10	-3.3800E-10	-4.8500E-10	-1.723915E-10	-1.732365E-10	-1.729900E-10	-1.717250E-10	-1.716146E-10	   23.3335	   23.5634	    6.5057	  -15.1142	
  -20.0000	-3.5400E-10	-3.4800E-10	-5.6700E-10	-3.3300E-10	-1.6800E-10	-1.797539E-10	-1.791560E-10	-1.799014E-10	-1.799323E-10	-1.800261E-10	   23.3310	   23.5649	    6.3972	  -15.3158	
  -25.0000	-3.7625E-10	-3.9600E-10	-5.6800E-10	-3.6100E-10	-1.8000E-10	-1.876992E-10	-1.872927E-10	-1.882247E-10	-1.876916E-10	-1.875879E-10	   23.3310	   23.5631	    6.3615	  -15.3845	
  -30.0000	-3.6750E-10	-5.7100E-10	-5.1400E-10	-3.7600E-10	-9.0000E-12	-1.977348E-10	-2.000324E-10	-1.957998E-10	-1.982522E-10	-1.968546E-10	   23.3310	   23.5620	    6.2726	  -15.5546	
  -35.0000	-2.1825E-10	-4.5300E-10	-2.0700E-10	-5.0000E-12	-2.0800E-10	-2.098085E-10	-2.104374E-10	-2.100830E-10	-2.106108E-10	-2.081027E-10	   23.3310	   23.5587	    6.2065	  -15.6843	
  -40.0000	-4.6000E-10	-2.7300E-10	-4.6900E-10	-6.5700E-10	-4.4100E-10	-2.195758E-10	-2.252207E-10	-2.180871E-10	-2.191246E-10	-2.158707E-10	   23.3335	   23.5637	    6.1682	  -15.7549	
  -45.0000	-3.0075E-10	-5.2400E-10	-4.2100E-10	-6.5000E-11	-1.9300E-10	-2.360511E-10	-2.365991E-10	-2.352711E-10	-2.356088E-10	-2.367254E-10	   23.3335	   23.5579	    6.1148	  -15.8635	
  -50.0000	-5.3125E-10	-3.5700E-10	-6.8800E-10	-6.0200E-10	-4.7800E-10	-2.435825E-10	-2.442719E-10	-2.434490E-10	-2.454071E-10	-2.412021E-10	   23.3335	   23.5570	    6.0683	  -15.9556	
  -55.0000	-4.7675E-10	-2.7100E-10	-3.4600E-10	-6.3700E-10	-6.5300E-10	-2.507106E-10	-2.539009E-10	-2.520075E-10	-2.446337E-10	-2.523001E-10	   23.3310	   23.5585	    6.0332	  -16.0240	
  -60.0000	-5.5375E-10	-3.7700E-10	-6.7100E-10	-6.5800E-10	-5.0900E-10	-2.567007E-10	-2.579395E-10	-2.576435E-10	-2.530563E-10	-2.581636E-10	   23.3335	   23.5554	    6.0032	  -16.0859	
  -65.0000	-5.6050E-10	-3.9000E-10	-5.2600E-10	-7.6500E-10	-5.6100E-10	-2.647800E-10	-2.592677E-10	-2.592327E-10	-2.645340E-10	-2.760855E-10	   23.3335	   23.5599	    5.9829	  -16.1231	
  -70.0000	-5.5950E-10	-3.8300E-10	-4.6000E-10	-7.8100E-10	-6.1400E-10	-2.676646E-10	-2.681384E-10	-2.677384E-10	-2.668852E-10	-2.678963E-10	   23.3335	   23.5563	    5.9617	  -16.1681	
  -75.0000	-4.6175E-10	-7.3900E-10	-5.9400E-10	-3.3600E-10	-1.7800E-10	-2.681953E-10	-2.692488E-10	-2.635103E-10	-2.692849E-10	-2.707373E-10	   23.3335	   23.5624	    5.9367	  -16.2139	
  -80.0000	-6.2950E-10	-5.1500E-10	-8.5100E-10	-6.3100E-10	-5.2100E-10	-2.717951E-10	-2.719857E-10	-2.740386E-10	-2.714175E-10	-2.697388E-10	   23.3335	   23.5573	    5.9127	  -16.2661	
  -85.0000	-4.0775E-10	-6.3800E-10	-4.2200E-10	-1.7100E-10	-4.0000E-10	-2.689707E-10	-2.636757E-10	-2.731856E-10	-2.741807E-10	-2.648410E-10	   23.3335	   23.5578	    5.8941	  -16.3035	
  -90.0000	-4.0600E-10	-5.4300E-10	-1.8400E-10	-3.8900E-10	-5.0800E-10	-2.744067E-10	-2.738881E-10	-2.750586E-10	-2.741796E-10	-2.745005E-10	   23.3335	   23.5592	    5.8868	  -16.3172	
  -95.0000	-4.2250E-10	-6.5200E-10	-2.7000E-10	-3.2500E-10	-4.4300E-10	-2.758947E-10	-2.772811E-10	-2.769084E-10	-2.734271E-10	-2.759623E-10	   23.3335	   23.5567	    5.8716	  -16.3498	
 -100.0000	-4.2850E-10	-6.3900E-10	-2.3800E-10	-3.7100E-10	-4.6600E-10	-2.778216E-10	-2.792589E-10	-2.776326E-10	-2.775550E-10	-2.768399E-10	   23.3335	   23.5574	    5.8599	  -16.3731	
 -105.0000	-4.4625E-10	-5.9800E-10	-2.4400E-10	-4.2100E-10	-5.2200E-10	-2.809197E-10	-2.811062E-10	-2.798904E-10	-2.787182E-10	-2.839641E-10	   23.3335	   23.5560	    5.8643	  -16.3651	
 -110.0000	-4.7050E-10	-4.9600E-10	-2.5600E-10	-4.6400E-10	-6.6600E-10	-2.794936E-10	-2.806954E-10	-2.780547E-10	-2.792469E-10	-2.799773E-10	   23.3335	   23.5595	    5.8510	  -16.3896	
 -115.0000	-4.4875E-10	-5.3600E-10	-2.1200E-10	-4.6600E-10	-5.8100E-10	-2.818591E-10	-2.818747E-10	-2.819837E-10	-2.815369E-10	-2.820411E-10	   23.3335	   23.5585	    5.8400	  -16.4130	
 -120.0000	-6.9300E-10	-7.8300E-10	-8.9800E-10	-6.4000E-10	-4.5100E-10	-2.825721E-10	-2.826392E-10	-2.826698E-10	-2.833895E-10	-2.815897E-10	   23.3335	   23.5595	    5.8381	  -16.4161	
 -125.0000	-7.2125E-10	-6.0700E-10	-9.2200E-10	-7.6000E-10	-5.9600E-10	-2.833727E-10	-2.827452E-10	-2.837225E-10	-2.836657E-10	-2.833575E-10	   23.3335	   23.5602	    5.8346	  -16.4227	
 -130.0000	-7.1450E-10	-6.2400E-10	-9.6300E-10	-7.3100E-10	-5.4000E-10	-2.830752E-10	-2.820267E-10	-2.837232E-10	-2.833388E-10	-2.832121E-10	   23.3335	   23.5567	    5.8172	  -16.4608	
 -135.0000	-5.0475E-10	-5.8400E-10	-2.4000E-10	-5.0400E-10	-6.9100E-10	-2.848903E-10	-2.850754E-10	-2.853819E-10	-2.844834E-10	-2.846205E-10	   23.3335	   23.5581	    5.8182	  -16.4579	
 -140.0000	-5.7675E-10	-3.2700E-10	-4.3000E-10	-6.0100E-10	-9.4900E-10	-2.851582E-10	-2.843188E-10	-2.868585E-10	-2.847795E-10	-2.846759E-10	   23.3361	   23.5604	    5.7989	  -16.4958	
 -145.0000	-7.5650E-10	-6.0500E-10	-8.7800E-10	-8.7900E-10	-6.6400E-10	-2.843743E-10	-2.860117E-10	-2.859215E-10	-2.811738E-10	-2.843900E-10	   23.3335	   23.5593	    5.8004	  -16.4934	
 -150.0000	-5.2875E-10	-7.5600E-10	-5.3400E-10	-2.8700E-10	-5.3800E-10	-2.871102E-10	-2.898135E-10	-2.912497E-10	-2.800608E-10	-2.873166E-10	   23.3361	   23.5550	    5.7960	  -16.5055	
 -155.0000	-5.2300E-10	-7.0200E-10	-3.6400E-10	-4.1500E-10	-6.1100E-10	-2.880420E-10	-2.887965E-10	-2.888879E-10	-2.860379E-10	-2.884458E-10	   23.3361	   23.5587	    5.7849	  -16.5257	
 -160.0000	-7.8600E-10	-6.9800E-10	-9.9600E-10	-8.0100E-10	-6.4900E-10	-2.896899E-10	-2.894222E-10	-2.919358E-10	-2.884451E-10	-2.889564E-10	   23.3335	   23.5556	    5.7802	  -16.5377	
 -165.0000	-7.2875E-10	-4.7600E-10	-6.3300E-10	-8.8300E-10	-9.2300E-10	-2.892907E-10	-2.880800E-10	-2.898100E-10	-2.896129E-10	-2.896600E-10	   23.3361	   23.5577	    5.7944	  -16.5069	
 -170.0000	-5.5600E-10	-6.5900E-10	-3.3400E-10	-5.5000E-10	-6.8100E-10	-2.906027E-10	-2.970397E-10	-2.886769E-10	-2.885834E-10	-2.881106E-10	   23.3361	   23.5602	    5.7910	  -16.5122	
 -175.0000	-5.7350E-10	-7.9000E-10	-6.0000E-10	-3.2000E-10	-5.8400E-10	-2.905409E-10	-2.937606E-10	-2.860938E-10	-2.906615E-10	-2.916476E-10	   23.3361	   23.5578	    5.7694	  -16.5583	
 -180.0000	-6.2050E-10	-4.4200E-10	-4.2600E-10	-6.5000E-10	-9.6400E-10	-2.966557E-10	-2.920214E-10	-2.921696E-10	-3.063743E-10	-2.960576E-10	   23.3361	   23.5554	    5.7631	  -16.5731	
 -185.0000	-7.9050E-10	-5.6900E-10	-7.3700E-10	-1.0670E-9	-7.8900E-10	-2.960550E-10	-2.914569E-10	-2.958537E-10	-3.087690E-10	-2.881404E-10	   23.3361	   23.5536	    5.7669	  -16.5665	
 -190.0000	-7.9925E-10	-8.3400E-10	-1.0720E-9	-7.8200E-10	-5.0900E-10	-2.953266E-10	-2.937278E-10	-2.971469E-10	-2.933410E-10	-2.970909E-10	   23.3361	   23.5573	    5.7606	  -16.5769	
 -195.0000	-5.9225E-10	-7.6200E-10	-3.6200E-10	-5.3000E-10	-7.1500E-10	-2.995877E-10	-2.967191E-10	-3.086397E-10	-2.898936E-10	-3.030985E-10	   23.3361	   23.5524	    5.7634	  -16.5746	
 -200.0000	-6.2850E-10	-7.2100E-10	-3.4800E-10	-6.2000E-10	-8.2500E-10	-2.983126E-10	-2.989031E-10	-2.972168E-10	-2.982905E-10	-2.988400E-10	   23.3361	   23.5567	    5.7492	  -16.6010	
 -205.0000	-6.1825E-10	-8.0900E-10	-4.5800E-10	-4.9900E-10	-7.0700E-10	-3.001733E-10	-3.012862E-10	-3.002385E-10	-2.989675E-10	-3.002009E-10	   23.3387	   23.5518	    5.7476	  -16.6077	
 -210.0000	-8.6075E-10	-6.7200E-10	-8.7000E-10	-1.0880E-9	-8.1300E-10	-3.017016E-10	-3.013006E-10	-3.005799E-10	-3.022199E-10	-3.027059E-10	   23.3387	   23.5535	    5.7492	  -16.6032	
 -215.0000	-8.7125E-10	-7.9200E-10	-1.1230E-9	-8.9200E-10	-6.7800E-10	-3.034866E-10	-3.014343E-10	-3.048951E-10	-3.046070E-10	-3.030100E-10	   23.3387	   23.5543	    5.7505	  -16.6000	
 -220.0000	-6.5450E-10	-8.7200E-10	-5.9800E-10	-4.3200E-10	-7.1600E-10	-3.069542E-10	-3.099310E-10	-3.057999E-10	-3.060824E-10	-3.060034E-10	   23.3387	   23.5502	    5.7508	  -16.6023	
 -225.0000	-8.4725E-10	-1.0020E-9	-1.0810E-9	-8.3000E-10	-4.7600E-10	-3.083091E-10	-3.083394E-10	-3.083302E-10	-3.097549E-10	-3.068117E-10	   23.3387	   23.5524	    5.7343	  -16.6349	
 -230.0000	-7.0100E-10	-9.8200E-10	-7.5700E-10	-3.9400E-10	-6.7100E-10	-3.103169E-10	-3.103301E-10	-3.098632E-10	-3.106939E-10	-3.103805E-10	   23.3387	   23.5555	    5.7464	  -16.6077	
 -235.0000	-8.5900E-10	-9.5600E-10	-1.1470E-9	-8.5100E-10	-4.8200E-10	-3.116344E-10	-3.117067E-10	-3.121010E-10	-3.109515E-10	-3.117783E-10	   23.3387	   23.5490	    5.7429	  -16.6196	
 -240.0000	-6.9650E-10	-8.8300E-10	-5.0400E-10	-5.9500E-10	-8.0400E-10	-3.147822E-10	-3.133829E-10	-3.152888E-10	-3.141987E-10	-3.162583E-10	   23.3387	   23.5534	    5.7366	  -16.6295	
 -245.0000	-8.9900E-10	-9.1600E-10	-1.1870E-9	-8.9000E-10	-6.0300E-10	-3.164945E-10	-3.151263E-10	-3.172180E-10	-3.173172E-10	-3.163164E-10	   23.3387	   23.5535	    5.7277	  -16.6478	
 -250.0000	-7.1825E-10	-8.5500E-10	-4.5000E-10	-6.9900E-10	-8.6900E-10	-3.186537E-10	-3.188314E-10	-3.186120E-10	-3.190558E-10	-3.181155E-10	   23.3387	   23.5541	    5.7296	  -16.6435	
 -255.0000	-9.0900E-10	-6.5900E-10	-8.2600E-10	-1.1720E-9	-9.7900E-10	-3.205016E-10	-3.199273E-10	-3.200870E-10	-3.216229E-10	-3.203691E-10	   23.3387	   23.5542	    5.7334	  -16.6355	
 -260.0000	-8.6350E-10	-5.1500E-10	-7.8500E-10	-1.0670E-9	-1.0870E-9	-3.224222E-10	-3.224319E-10	-3.225524E-10	-3.224392E-10	-3.222654E-10	   23.3387	   23.5503	    5.7306	  -16.6442	
 -265.0000	-9.3050E-10	-1.1070E-9	-1.1300E-9	-9.0100E-10	-5.8400E-10	-3.245289E-10	-3.244080E-10	-3.248454E-10	-3.246690E-10	-3.241931E-10	   23.3387	   23.5516	    5.7321	  -16.6400	
 -270.0000	-9.6925E-10	-9.0000E-10	-1.2120E-9	-9.7200E-10	-7.9300E-10	-3.254942E-10	-3.259621E-10	-3.257377E-10	-3.250150E-10	-3.252622E-10	   23.3387	   23.5533	    5.7188	  -16.6664	
 -275.0000	-9.6000E-10	-1.1060E-9	-1.1520E-9	-9.2400E-10	-6.5800E-10	-3.260071E-10	-3.256858E-10	-3.258836E-10	-3.264367E-10	-3.260223E-10	   23.3387	   23.5481	    5.7160	  -16.6761	
 -280.0000	-7.5375E-10	-8.6300E-10	-5.1700E-10	-7.4800E-10	-8.8700E-10	-3.272146E-10	-3.267591E-10	-3.273030E-10	-3.274262E-10	-3.273699E-10	   23.3387	   23.5549	    5.7135	  -16.6765	
 -285.0000	-7.7900E-10	-7.8400E-10	-5.1200E-10	-7.8800E-10	-1.0320E-9	-3.293868E-10	-3.296109E-10	-3.289574E-10	-3.289580E-10	-3.300208E-10	   23.3387	   23.5517	    5.7211	  -16.6630	
 -290.0000	-9.5775E-10	-1.0820E-9	-1.1930E-9	-9.3800E-10	-6.1800E-10	-3.290611E-10	-3.291892E-10	-3.292916E-10	-3.295185E-10	-3.282451E-10	   23.3387	   23.5469	    5.7255	  -16.6572	
 -295.0000	-8.7400E-10	-1.2530E-9	-9.7200E-10	-7.4500E-10	-5.2600E-10	-3.309323E-10	-3.307811E-10	-3.309660E-10	-3.310435E-10	-3.309386E-10	   23.3413	   23.5484	    5.7198	  -16.6679	
 -300.0000	-7.8700E-10	-9.7400E-10	-6.2300E-10	-6.7300E-10	-8.7800E-10	-3.313335E-10	-3.315143E-10	-3.308900E-10	-3.308724E-10	-3.320572E-10	   23.3387	   23.5512	    5.7176	  -16.6705	
 -305.0000	-1.0330E-9	-9.9200E-10	-1.2770E-9	-1.0130E-9	-8.5000E-10	-3.322708E-10	-3.311244E-10	-3.317610E-10	-3.328838E-10	-3.333140E-10	   23.3413	   23.5540	    5.7132	  -16.6778	
 -310.0000	-8.1825E-10	-8.1100E-10	-5.8500E-10	-8.3900E-10	-1.0380E-9	-3.328069E-10	-3.327641E-10	-3.330090E-10	-3.325635E-10	-3.328908E-10	   23.3413	   23.5508	    5.7182	  -16.6695	
 -315.0000	-1.0608E-9	-9.4100E-10	-1.2440E-9	-1.1160E-9	-9.4200E-10	-3.339259E-10	-3.335499E-10	-3.341996E-10	-3.338924E-10	-3.340618E-10	   23.3413	   23.5522	    5.6973	  -16.7120	
 -320.0000	-1.0203E-9	-8.0200E-10	-9.3700E-10	-1.2600E-9	-1.0820E-9	-3.351710E-10	-3.353242E-10	-3.352538E-10	-3.347777E-10	-3.353282E-10	   23.3387	   23.5470	    5.7018	  -16.7065	
 -325.0000	-1.0740E-9	-9.1800E-10	-1.1330E-9	-1.2430E-9	-1.0020E-9	-3.358260E-10	-3.360260E-10	-3.356206E-10	-3.358692E-10	-3.357882E-10	   23.3413	   23.5486	    5.7233	  -16.6606	
 -330.0000	-9.3600E-10	-6.5500E-10	-8.8900E-10	-9.5900E-10	-1.2410E-9	-3.356657E-10	-3.360762E-10	-3.365132E-10	-3.352804E-10	-3.347929E-10	   23.3413	   23.5482	    5.7094	  -16.6898	
 -335.0000	-1.0458E-9	-8.6400E-10	-9.4800E-10	-1.1790E-9	-1.1920E-9	-3.369949E-10	-3.361905E-10	-3.371325E-10	-3.372651E-10	-3.373915E-10	   23.3413	   23.5497	    5.7005	  -16.7072	
 -340.0000	-9.8825E-10	-1.2890E-9	-1.0600E-9	-9.5900E-10	-6.4500E-10	-3.377594E-10	-3.376071E-10	-3.381724E-10	-3.378502E-10	-3.374078E-10	   23.3413	   23.5488	    5.7052	  -16.6980	
 -345.0000	-1.0712E-9	-9.0900E-10	-1.0150E-9	-1.2710E-9	-1.0900E-9	-3.382944E-10	-3.380287E-10	-3.380376E-10	-3.384565E-10	-3.386550E-10	   23.3413	   23.5478	    5.7075	  -16.6941	
 -350.0000	-1.0093E-9	-7.1300E-10	-9.3700E-10	-1.1040E-9	-1.2830E-9	-3.389288E-10	-3.384414E-10	-3.388816E-10	-3.395950E-10	-3.387972E-10	   23.3438	   23.5464	    5.7002	  -16.7103	
 -355.0000	-8.6975E-10	-1.0720E-9	-8.6700E-10	-6.4400E-10	-8.9600E-10	-3.398255E-10	-3.399072E-10	-3.399299E-10	-3.396466E-10	-3.398185E-10	   23.3413	   23.5491	    5.7040	  -16.7004	
 -360.0000	-1.1115E-9	-9.3200E-10	-1.1150E-9	-1.3370E-9	-1.0620E-9	-3.407518E-10	-3.405846E-10	-3.413163E-10	-3.404904E-10	-3.406160E-10	   23.3413	   23.5484	    5.7078	  -16.6930	
 -365.0000	-1.0287E-9	-6.6900E-10	-9.6100E-10	-1.2530E-9	-1.2320E-9	-3.416941E-10	-3.428880E-10	-3.409482E-10	-3.413634E-10	-3.415767E-10	   23.3438	   23.5473	    5.6885	  -16.7340	
 -370.0000	-1.1250E-9	-9.4200E-10	-1.2020E-9	-1.3080E-9	-1.0480E-9	-3.416830E-10	-3.409235E-10	-3.420241E-10	-3.422914E-10	-3.414928E-10	   23.3413	   23.5465	    5.6958	  -16.7195	
 -375.0000	-9.0625E-10	-1.1320E-9	-8.6000E-10	-6.7000E-10	-9.6300E-10	-3.423840E-10	-3.422293E-10	-3.427988E-10	-3.418298E-10	-3.426779E-10	   23.3413	   23.5514	    5.6875	  -16.7331	
 -380.0000	-9.2575E-10	-1.1760E-9	-9.7100E-10	-6.4400E-10	-9.1200E-10	-3.424486E-10	-3.425771E-10	-3.421708E-10	-3.429024E-10	-3.421441E-10	   23.3413	   23.5471	    5.6977	  -16.7150	
 -385.0000	-9.7325E-10	-1.2860E-9	-1.0760E-9	-6.6500E-10	-8.6600E-10	-3.437946E-10	-3.434535E-10	-3.448252E-10	-3.431923E-10	-3.437073E-10	   23.3438	   23.5470	    5.7018	  -16.7065	
 -390.0000	-1.0720E-9	-7.1400E-10	-1.0150E-9	-1.3360E-9	-1.2230E-9	-3.443513E-10	-3.453866E-10	-3.447849E-10	-3.438437E-10	-3.433901E-10	   23.3413	   23.5450	    5.6958	  -16.7205	
 -395.0000	-1.0960E-9	-7.8300E-10	-1.0360E-9	-1.3930E-9	-1.1720E-9	-3.448351E-10	-3.446058E-10	-3.452368E-10	-3.449093E-10	-3.445887E-10	   23.3438	   23.5498	    5.6945	  -16.7197	
 -400.0000	-9.6875E-10	-1.2530E-9	-9.9400E-10	-6.6300E-10	-9.6500E-10	-3.457394E-10	-3.446667E-10	-3.466942E-10	-3.459743E-10	-3.456222E-10	   23.3438	   23.5461	    5.6847	  -16.7428	
 -410.0000	-1.2280E-9	-1.1560E-9	-1.4880E-9	-1.2450E-9	-1.0230E-9	-3.463296E-10	-3.456224E-10	-3.465709E-10	-3.460686E-10	-3.470565E-10	   23.3413	   23.5470	    5.6923	  -16.7263	
 -420.0000	-1.2862E-9	-1.1860E-9	-1.4890E-9	-1.3330E-9	-1.1370E-9	-3.477684E-10	-3.476988E-10	-3.478940E-10	-3.476651E-10	-3.478156E-10	   23.3413	   23.5454	    5.6932	  -16.7255	
 -430.0000	-1.3225E-9	-1.2130E-9	-1.4890E-9	-1.3820E-9	-1.2060E-9	-3.487464E-10	-3.486091E-10	-3.482140E-10	-3.494923E-10	-3.486703E-10	   23.3413	   23.5484	    5.6875	  -16.7352	
 -440.0000	-1.3292E-9	-1.1580E-9	-1.2790E-9	-1.5690E-9	-1.3110E-9	-3.502583E-10	-3.496688E-10	-3.509341E-10	-3.500733E-10	-3.503572E-10	   23.3413	   23.5503	    5.6856	  -16.7378	
 -450.0000	-1.3720E-9	-1.2240E-9	-1.4110E-9	-1.5610E-9	-1.2920E-9	-3.513292E-10	-3.516723E-10	-3.514471E-10	-3.514889E-10	-3.507086E-10	   23.3438	   23.5477	    5.6948	  -16.7205	
 -460.0000	-1.3870E-9	-1.2320E-9	-1.3460E-9	-1.6020E-9	-1.3680E-9	-3.516717E-10	-3.516429E-10	-3.516124E-10	-3.516148E-10	-3.518167E-10	   23.3413	   23.5472	    5.6853	  -16.7407	
 -470.0000	-1.2693E-9	-1.6140E-9	-1.3720E-9	-1.1570E-9	-9.3400E-10	-3.542784E-10	-3.541209E-10	-3.539440E-10	-3.546989E-10	-3.543499E-10	   23.3438	   23.5493	    5.6926	  -16.7240	
 -480.0000	-1.2825E-9	-1.6000E-9	-1.4000E-9	-1.1590E-9	-9.7100E-10	-3.553128E-10	-3.551605E-10	-3.555954E-10	-3.560058E-10	-3.544895E-10	   23.3413	   23.5476	    5.6809	  -16.7497	
 -490.0000	-1.2670E-9	-1.5510E-9	-1.3970E-9	-1.0340E-9	-1.0860E-9	-3.547431E-10	-3.543337E-10	-3.545346E-10	-3.550640E-10	-3.550402E-10	   23.3438	   23.5474	    5.6755	  -16.7611	
 -500.0000	-1.2740E-9	-1.5410E-9	-1.3580E-9	-9.8100E-10	-1.2160E-9	-3.556291E-10	-3.551112E-10	-3.557294E-10	-3.559587E-10	-3.557170E-10	   23.3438	   23.5493	    5.6856	  -16.7386	
 -510.0000	-1.2635E-9	-1.4690E-9	-1.0700E-9	-1.1680E-9	-1.3470E-9	-3.564165E-10	-3.561555E-10	-3.565027E-10	-3.565509E-10	-3.564571E-10	   23.3438	   23.5490	    5.6777	  -16.7554	
 -520.0000	-1.4975E-9	-1.3230E-9	-1.4590E-9	-1.7440E-9	-1.4640E-9	-3.583623E-10	-3.579338E-10	-3.586329E-10	-3.585424E-10	-3.583401E-10	   23.3438	   23.5503	    5.6866	  -16.7359	
 -530.0000	-1.5167E-9	-1.3340E-9	-1.5210E-9	-1.7500E-9	-1.4620E-9	-3.593016E-10	-3.587156E-10	-3.586890E-10	-3.602668E-10	-3.595352E-10	   23.3413	   23.5489	    5.6841	  -16.7421	
 -540.0000	-1.5545E-9	-1.4760E-9	-1.7930E-9	-1.5720E-9	-1.3770E-9	-3.593026E-10	-3.589591E-10	-3.592663E-10	-3.594161E-10	-3.595689E-10	   23.3438	   23.5508	    5.6803	  -16.7487	
 -550.0000	-1.5862E-9	-1.5010E-9	-1.7970E-9	-1.6070E-9	-1.4400E-9	-3.602550E-10	-3.604935E-10	-3.602919E-10	-3.599999E-10	-3.602346E-10	   23.3438	   23.5485	    5.6692	  -16.7736	
 -560.0000	-1.3695E-9	-1.5960E-9	-1.4110E-9	-1.1090E-9	-1.3620E-9	-3.612683E-10	-3.607904E-10	-3.610517E-10	-3.612290E-10	-3.620020E-10	   23.3438	   23.5485	    5.6806	  -16.7497	
 -570.0000	-1.4627E-9	-1.1990E-9	-1.4220E-9	-1.4830E-9	-1.7470E-9	-3.620728E-10	-3.617172E-10	-3.624421E-10	-3.621485E-10	-3.619833E-10	   23.3438	   23.5476	    5.6818	  -16.7477	
 -580.0000	-1.5275E-9	-1.3010E-9	-1.4820E-9	-1.5490E-9	-1.7780E-9	-3.630062E-10	-3.623637E-10	-3.633053E-10	-3.630794E-10	-3.632765E-10	   23.3438	   23.5489	    5.6891	  -16.7316	
 -590.0000	-1.5207E-9	-1.2970E-9	-1.4770E-9	-1.5380E-9	-1.7710E-9	-3.635002E-10	-3.632180E-10	-3.634532E-10	-3.640392E-10	-3.632905E-10	   23.3438	   23.5483	    5.6885	  -16.7334	
 -600.0000	-1.4752E-9	-1.2700E-9	-1.4200E-9	-1.5130E-9	-1.6980E-9	-3.641983E-10	-3.641775E-10	-3.644419E-10	-3.642865E-10	-3.638873E-10	   23.3464	   23.5530	    5.6913	  -16.7240	
 -610.0000	-1.4667E-9	-1.7070E-9	-1.6010E-9	-1.3020E-9	-1.2570E-9	-3.654794E-10	-3.651032E-10	-3.656834E-10	-3.654089E-10	-3.657221E-10	   23.3464	   23.5512	    5.6885	  -16.7313	
 -620.0000	-1.4660E-9	-1.6900E-9	-1.5380E-9	-1.2180E-9	-1.4180E-9	-3.665625E-10	-3.668363E-10	-3.665271E-10	-3.665170E-10	-3.663694E-10	   23.3438	   23.5498	    5.6942	  -16.7203	
 -630.0000	-1.6537E-9	-1.4030E-9	-1.5800E-9	-1.8080E-9	-1.8240E-9	-3.675774E-10	-3.675747E-10	-3.674704E-10	-3.677260E-10	-3.675384E-10	   23.3438	   23.5504	    5.6822	  -16.7450	
 -640.0000	-1.6557E-9	-1.3590E-9	-1.5830E-9	-1.8260E-9	-1.8550E-9	-3.689254E-10	-3.693243E-10	-3.694324E-10	-3.686290E-10	-3.683157E-10	   23.3438	   23.5532	    5.7040	  -16.6975	
 -650.0000	-1.7502E-9	-1.5900E-9	-1.7810E-9	-1.9480E-9	-1.6820E-9	-3.694988E-10	-3.697445E-10	-3.691145E-10	-3.690584E-10	-3.700776E-10	   23.3438	   23.5486	    5.6954	  -16.7186	
 -660.0000	-1.6073E-9	-1.3100E-9	-1.5100E-9	-1.6240E-9	-1.9850E-9	-3.648750E-10	-3.665558E-10	-3.694980E-10	-3.696987E-10	-3.537476E-10	   23.3464	   23.5519	    5.7075	  -16.6911	
 -670.0000	-1.7340E-9	-1.4730E-9	-1.6880E-9	-1.9950E-9	-1.7800E-9	-3.700169E-10	-3.701712E-10	-3.676547E-10	-3.712991E-10	-3.709425E-10	   23.3464	   23.5528	    5.6970	  -16.7122	
 -680.0000	-1.7860E-9	-1.6240E-9	-1.8960E-9	-1.9360E-9	-1.6880E-9	-3.719351E-10	-3.717941E-10	-3.725966E-10	-3.715283E-10	-3.718214E-10	   23.3438	   23.5548	    5.7040	  -16.6963	
 -690.0000	-1.8028E-9	-1.6280E-9	-1.8070E-9	-2.0310E-9	-1.7450E-9	-3.736322E-10	-3.741904E-10	-3.739652E-10	-3.734191E-10	-3.729539E-10	   23.3464	   23.5553	    5.7094	  -16.6848	
 -700.0000	-1.6075E-9	-1.8620E-9	-1.6550E-9	-1.3210E-9	-1.5920E-9	-3.731544E-10	-3.732937E-10	-3.731117E-10	-3.730370E-10	-3.731752E-10	   23.3464	   23.5566	    5.7128	  -16.6766	
 -710.0000	-1.8390E-9	-1.6600E-9	-1.8510E-9	-2.0680E-9	-1.7770E-9	-3.749647E-10	-3.749941E-10	-3.746920E-10	-3.749389E-10	-3.752340E-10	   23.3464	   23.5534	    5.7059	  -16.6934	
 -720.0000	-1.8567E-9	-1.6900E-9	-1.9390E-9	-2.0330E-9	-1.7650E-9	-3.751385E-10	-3.752196E-10	-3.752530E-10	-3.751410E-10	-3.749405E-10	   23.3464	   23.5551	    5.7138	  -16.6756	
 -730.0000	-1.8328E-9	-1.5940E-9	-1.7750E-9	-2.1070E-9	-1.8550E-9	-3.770879E-10	-3.773808E-10	-3.774366E-10	-3.771198E-10	-3.764145E-10	   23.3464	   23.5528	    5.7138	  -16.6773	
 -740.0000	-1.7152E-9	-1.6720E-9	-1.4280E-9	-1.7270E-9	-2.0340E-9	-3.777949E-10	-3.778906E-10	-3.779881E-10	-3.775827E-10	-3.777183E-10	   23.3464	   23.5541	    5.7090	  -16.6862	
 -750.0000	-1.6813E-9	-1.9150E-9	-1.5730E-9	-1.4830E-9	-1.7540E-9	-3.789635E-10	-3.783995E-10	-3.787429E-10	-3.796439E-10	-3.790679E-10	   23.3464	   23.5547	    5.7179	  -16.6673	
 -760.0000	-1.7928E-9	-2.2030E-9	-1.9040E-9	-1.6090E-9	-1.4550E-9	-3.797299E-10	-3.793752E-10	-3.797538E-10	-3.798903E-10	-3.799004E-10	   23.3464	   23.5554	    5.7049	  -16.6939	
 -770.0000	-1.7417E-9	-2.0220E-9	-1.8160E-9	-1.4340E-9	-1.6950E-9	-3.810448E-10	-3.801300E-10	-3.814824E-10	-3.816201E-10	-3.809467E-10	   23.3464	   23.5567	    5.7157	  -16.6706	
 -780.0000	-1.7273E-9	-1.9630E-9	-1.6950E-9	-1.4910E-9	-1.7600E-9	-3.827317E-10	-3.820126E-10	-3.828152E-10	-3.830210E-10	-3.830780E-10	   23.3464	   23.5562	    5.7214	  -16.6590	
 -790.0000	-1.8120E-9	-2.1630E-9	-1.9270E-9	-1.5720E-9	-1.5860E-9	-3.840899E-10	-3.845375E-10	-3.838856E-10	-3.836902E-10	-3.842463E-10	   23.3490	   23.5541	    5.7071	  -16.6902	
 -800.0000	-1.8195E-9	-2.1500E-9	-1.9370E-9	-1.5360E-9	-1.6550E-9	-3.856108E-10	-3.850316E-10	-3.860268E-10	-3.855416E-10	-3.858432E-10	   23.3490	   23.5575	    5.7147	  -16.6719	
 -810.0000	-2.0260E-9	-1.9310E-9	-2.2180E-9	-2.0610E-9	-1.8940E-9	-3.866937E-10	-3.859773E-10	-3.872209E-10	-3.866380E-10	-3.869385E-10	   23.3490	   23.5563	    5.7097	  -16.6834	
 -820.0000	-1.7865E-9	-2.0160E-9	-1.7340E-9	-1.5720E-9	-1.8240E-9	-3.886938E-10	-3.887153E-10	-3.890950E-10	-3.884695E-10	-3.884955E-10	   23.3490	   23.5538	    5.7223	  -16.6588	
 -830.0000	-1.9722E-9	-1.6950E-9	-1.9090E-9	-2.1470E-9	-2.1380E-9	-3.905960E-10	-3.900046E-10	-3.900981E-10	-3.912892E-10	-3.909922E-10	   23.3490	   23.5535	    5.7141	  -16.6762	
 -840.0000	-2.0685E-9	-1.9810E-9	-2.2760E-9	-2.0960E-9	-1.9210E-9	-3.918330E-10	-3.918569E-10	-3.913069E-10	-3.921310E-10	-3.920373E-10	   23.3490	   23.5562	    5.7144	  -16.6735	
 -850.0000	-1.8435E-9	-2.0710E-9	-1.8600E-9	-1.5900E-9	-1.8530E-9	-3.934077E-10	-3.936153E-10	-3.933551E-10	-3.933145E-10	-3.933461E-10	   23.3490	   23.5557	    5.7179	  -16.6666	
 -860.0000	-2.1045E-9	-1.9640E-9	-2.1380E-9	-2.2900E-9	-2.0260E-9	-3.958464E-10	-3.956790E-10	-3.963044E-10	-3.956969E-10	-3.957051E-10	   23.3490	   23.5582	    5.7090	  -16.6833	
 -870.0000	-2.0150E-9	-1.7000E-9	-1.9490E-9	-2.1270E-9	-2.2840E-9	-3.979110E-10	-3.977098E-10	-3.976372E-10	-3.983782E-10	-3.979188E-10	   23.3490	   23.5590	    5.7195	  -16.6610	
 -880.0000	-1.9242E-9	-2.1840E-9	-2.0440E-9	-1.6820E-9	-1.7870E-9	-3.995780E-10	-3.995637E-10	-3.995771E-10	-3.996231E-10	-3.995482E-10	   23.3490	   23.5573	    5.7214	  -16.6583	
 -890.0000	-2.0995E-9	-1.9000E-9	-2.0210E-9	-2.2720E-9	-2.2050E-9	-4.016691E-10	-4.016818E-10	-4.017745E-10	-4.013185E-10	-4.019015E-10	   23.3490	   23.5578	    5.7097	  -16.6823	
 -900.0000	-1.9375E-9	-2.1740E-9	-2.0270E-9	-1.6890E-9	-1.8600E-9	-4.037384E-10	-4.039674E-10	-4.033630E-10	-4.036813E-10	-4.039420E-10	   23.3490	   23.5555	    5.7179	  -16.6668	
 -910.0000	-2.1847E-9	-2.0460E-9	-2.2230E-9	-2.3600E-9	-2.1100E-9	-4.069784E-10	-4.068994E-10	-4.070220E-10	-4.068467E-10	-4.071456E-10	   23.3490	   23.5554	    5.7135	  -16.6761	
 -920.0000	-1.9625E-9	-2.1960E-9	-2.0170E-9	-1.6980E-9	-1.9390E-9	-4.097818E-10	-4.093393E-10	-4.098560E-10	-4.101063E-10	-4.098258E-10	   23.3490	   23.5598	    5.7141	  -16.6716	
 -930.0000	-2.1510E-9	-1.8970E-9	-2.0820E-9	-2.3310E-9	-2.2940E-9	-4.125587E-10	-4.123021E-10	-4.126394E-10	-4.128299E-10	-4.124632E-10	   23.3516	   23.5550	    5.7182	  -16.6665	
 -940.0000	-1.9802E-9	-2.2000E-9	-1.9780E-9	-1.7460E-9	-1.9970E-9	-4.161608E-10	-4.163980E-10	-4.160371E-10	-4.156538E-10	-4.165542E-10	   23.3516	   23.5585	    5.7211	  -16.6581	
 -950.0000	-1.9983E-9	-2.2210E-9	-2.0080E-9	-1.7630E-9	-2.0010E-9	-4.193186E-10	-4.192514E-10	-4.194243E-10	-4.196008E-10	-4.189980E-10	   23.3490	   23.5524	    5.7034	  -16.6993	
 -960.0000	-2.0468E-9	-2.2890E-9	-2.1550E-9	-1.7920E-9	-1.9510E-9	-4.227728E-10	-4.226363E-10	-4.229789E-10	-4.230022E-10	-4.224738E-10	   23.3490	   23.5590	    5.7207	  -16.6583	
 -970.0000	-2.1233E-9	-1.8600E-9	-2.0250E-9	-2.1700E-9	-2.4380E-9	-4.260537E-10	-4.259689E-10	-4.261770E-10	-4.258528E-10	-4.262161E-10	   23.3490	   23.5579	    5.7160	  -16.6690	
 -980.0000	-2.1320E-9	-1.8600E-9	-2.0540E-9	-2.1680E-9	-2.4460E-9	-4.296917E-10	-4.295319E-10	-4.299427E-10	-4.299771E-10	-4.293149E-10	   23.3516	   23.5583	    5.7113	  -16.6786	
 -990.0000	-2.0757E-9	-2.2730E-9	-1.8860E-9	-1.9960E-9	-2.1480E-9	-4.346089E-10	-4.338849E-10	-4.351209E-10	-4.350189E-10	-4.344107E-10	   23.3490	   23.5586	    5.7125	  -16.6758	
-1000.0000	-2.3530E-9	-2.2370E-9	-2.4720E-9	-2.4510E-9	-2.2520E-9	-4.390573E-10	-4.392789E-10	-4.392264E-10	-4.386446E-10	-4.390792E-10	   23.3516	   23.5570	    5.7100	  -16.6822	
