GCD Test
Bias: 5000.000000
IV_34331_042_2-S_HM_XX_DIODEHALFPSTOP_Irradiated
Date/Time: 10/25/2021 4:01:57 PM
Sensor Name: DIODEHALFPSTOP
Type: P
Annealing Status: Irradiated and Annealed at 60C for 80 Minutes
Environment: -20C
Tester: Andrew Kent

Time Delay per Ramp Step (s): 1.000

CV Time Delay per Measurement (s) :0.500

AC Voltage (V): 0.500

Current Number of measurements per voltage: 4.000

IV Time Delay per Measurement (s) :0.000


BiasVoltage	Total Current_Avg	Total Current_0	Total Current_1	Total Current_2	Total Current_3	Bias Current_Avg	Bias Current_0	Bias Current_1	Bias Current_2	Bias Current_3	Temperature	Air_Temp	Humidity	Dewpoint	
  -10.0000	-1.9905E-7	-1.9990E-7	-1.9870E-7	-1.9930E-7	-1.9830E-7	-1.991998E-7	-1.990661E-7	-1.995609E-7	-1.990597E-7	-1.991124E-7	  -19.9550	    7.2941	    3.2812	  -34.2034	
  -20.0000	-2.6465E-7	-2.6630E-7	-2.6530E-7	-2.6370E-7	-2.6330E-7	-2.626489E-7	-2.625388E-7	-2.622052E-7	-2.623676E-7	-2.634840E-7	  -19.9880	    7.2941	    3.2837	  -34.1957	
  -30.0000	-3.1340E-7	-3.1370E-7	-3.1450E-7	-3.1280E-7	-3.1260E-7	-3.148809E-7	-3.133557E-7	-3.137774E-7	-3.159048E-7	-3.164858E-7	  -19.9092	    7.3291	    3.2935	  -34.1414	
  -40.0000	-3.5675E-7	-3.5720E-7	-3.5630E-7	-3.5650E-7	-3.5700E-7	-3.562338E-7	-3.575836E-7	-3.566275E-7	-3.556842E-7	-3.550399E-7	  -19.9728	    7.3489	    3.2979	  -34.1141	
  -50.0000	-3.9330E-7	-3.9210E-7	-3.9330E-7	-3.9390E-7	-3.9390E-7	-3.946425E-7	-3.944543E-7	-3.949569E-7	-3.943093E-7	-3.948494E-7	  -19.9702	    7.3365	    3.2998	  -34.1169	
  -60.0000	-4.2978E-7	-4.3070E-7	-4.2990E-7	-4.2990E-7	-4.2860E-7	-4.271988E-7	-4.274029E-7	-4.275031E-7	-4.271599E-7	-4.267295E-7	  -20.0542	    7.4384	    3.3156	  -33.9980	
  -70.0000	-4.5425E-7	-4.5360E-7	-4.5380E-7	-4.5460E-7	-4.5500E-7	-4.557617E-7	-4.551695E-7	-4.566820E-7	-4.555027E-7	-4.556925E-7	  -20.0389	    7.4384	    3.3270	  -33.9634	
  -80.0000	-4.8468E-7	-4.8470E-7	-4.8400E-7	-4.8470E-7	-4.8530E-7	-4.858165E-7	-4.837739E-7	-4.854086E-7	-4.874274E-7	-4.866560E-7	  -20.0008	    7.4240	    3.3355	  -33.9474	
  -90.0000	-5.1062E-7	-5.0980E-7	-5.1000E-7	-5.1090E-7	-5.1180E-7	-5.122809E-7	-5.123315E-7	-5.111465E-7	-5.130596E-7	-5.125859E-7	  -20.0211	    7.4142	    3.3371	  -33.9494	
 -100.0000	-5.3500E-7	-5.3890E-7	-5.3600E-7	-5.3310E-7	-5.3200E-7	-5.313414E-7	-5.306041E-7	-5.314322E-7	-5.310104E-7	-5.323188E-7	  -19.9982	    7.4529	    3.3501	  -33.8833	
 -110.0000	-5.5805E-7	-5.5660E-7	-5.5940E-7	-5.5810E-7	-5.5810E-7	-5.566497E-7	-5.565827E-7	-5.562481E-7	-5.559668E-7	-5.578011E-7	  -20.0211	    7.4368	    3.3567	  -33.8744	
 -120.0000	-5.8223E-7	-5.8420E-7	-5.8090E-7	-5.8240E-7	-5.8140E-7	-5.823499E-7	-5.813131E-7	-5.826567E-7	-5.823873E-7	-5.830424E-7	  -20.0465	    7.4005	    3.3643	  -33.8767	
 -130.0000	-6.0698E-7	-6.0840E-7	-6.0790E-7	-6.0620E-7	-6.0540E-7	-6.021189E-7	-6.019172E-7	-6.006138E-7	-6.021899E-7	-6.037546E-7	  -20.0974	    7.4446	    3.3672	  -33.8376	
 -140.0000	-6.2710E-7	-6.2810E-7	-6.2700E-7	-6.2680E-7	-6.2650E-7	-6.246401E-7	-6.255936E-7	-6.231143E-7	-6.244350E-7	-6.254174E-7	  -20.0313	    7.4735	    3.3561	  -33.8509	
 -150.0000	-6.3865E-7	-6.3860E-7	-6.3780E-7	-6.4000E-7	-6.3820E-7	-6.366335E-7	-6.385114E-7	-6.377369E-7	-6.360153E-7	-6.342705E-7	  -20.0491	    7.4735	    3.3754	  -33.7928	
 -160.0000	-6.5880E-7	-6.5860E-7	-6.5930E-7	-6.5860E-7	-6.5870E-7	-6.554461E-7	-6.560267E-7	-6.547912E-7	-6.543976E-7	-6.565687E-7	  -20.0389	    7.4876	    3.3824	  -33.7621	
 -170.0000	-6.8075E-7	-6.7990E-7	-6.7920E-7	-6.8120E-7	-6.8270E-7	-6.774928E-7	-6.800387E-7	-6.777436E-7	-6.753128E-7	-6.768761E-7	  -20.0567	    7.4387	    3.3665	  -33.8436	
 -180.0000	-6.9453E-7	-6.9310E-7	-6.9600E-7	-6.9540E-7	-6.9360E-7	-6.933998E-7	-6.920667E-7	-6.930466E-7	-6.927417E-7	-6.957443E-7	  -20.0898	    7.4003	    3.3741	  -33.8473	
 -190.0000	-7.0843E-7	-7.0920E-7	-7.0990E-7	-7.0890E-7	-7.0570E-7	-7.033018E-7	-7.049686E-7	-7.042649E-7	-7.024533E-7	-7.015205E-7	  -20.0237	    7.4275	    3.3729	  -33.8323	
 -200.0000	-7.2190E-7	-7.2290E-7	-7.2170E-7	-7.2010E-7	-7.2290E-7	-7.212141E-7	-7.196278E-7	-7.199255E-7	-7.221005E-7	-7.232026E-7	  -20.0389	    7.4388	    3.3767	  -33.8130	
 -210.0000	-7.4532E-7	-7.4710E-7	-7.4670E-7	-7.4590E-7	-7.4160E-7	-7.395541E-7	-7.375604E-7	-7.382300E-7	-7.403585E-7	-7.420674E-7	  -20.0440	    7.4523	    3.3846	  -33.7800	
 -220.0000	-7.5618E-7	-7.5800E-7	-7.5690E-7	-7.5520E-7	-7.5460E-7	-7.526627E-7	-7.508185E-7	-7.500881E-7	-7.542095E-7	-7.555346E-7	  -20.0160	    7.4885	    3.3947	  -33.7246	
 -230.0000	-7.7528E-7	-7.7270E-7	-7.7600E-7	-7.7800E-7	-7.7440E-7	-7.692365E-7	-7.701100E-7	-7.692163E-7	-7.683440E-7	-7.692758E-7	  -20.0313	    7.4885	    3.3884	  -33.7435	
 -240.0000	-7.9235E-7	-7.9020E-7	-7.9270E-7	-7.9370E-7	-7.9280E-7	-7.917122E-7	-7.919793E-7	-7.921023E-7	-7.915002E-7	-7.912668E-7	  -20.0109	    7.4680	    3.4064	  -33.7039	
 -250.0000	-8.0287E-7	-8.0210E-7	-8.0000E-7	-8.0460E-7	-8.0480E-7	-8.008324E-7	-7.998751E-7	-8.003182E-7	-8.016102E-7	-8.015263E-7	  -20.0237	    7.4759	    3.4042	  -33.7050	
 -260.0000	-8.1990E-7	-8.1800E-7	-8.2160E-7	-8.2100E-7	-8.1900E-7	-8.184507E-7	-8.186662E-7	-8.209995E-7	-8.183817E-7	-8.157555E-7	  -19.9880	    7.4746	    3.4190	  -33.6617	
 -270.0000	-8.3670E-7	-8.3370E-7	-8.3450E-7	-8.4010E-7	-8.3850E-7	-8.370770E-7	-8.346969E-7	-8.384873E-7	-8.375509E-7	-8.375729E-7	  -19.9982	    7.4746	    3.4181	  -33.6645	
 -280.0000	-8.4523E-7	-8.4760E-7	-8.4650E-7	-8.4410E-7	-8.4270E-7	-8.377695E-7	-8.378774E-7	-8.376526E-7	-8.372850E-7	-8.382630E-7	  -19.9550	    7.4721	    3.4254	  -33.6447	
 -290.0000	-8.4678E-7	-8.5140E-7	-8.4550E-7	-8.4300E-7	-8.4720E-7	-8.452632E-7	-8.464035E-7	-8.455785E-7	-8.451184E-7	-8.439522E-7	  -19.9855	    7.4293	    3.4282	  -33.6659	
 -300.0000	-8.6270E-7	-8.6060E-7	-8.6090E-7	-8.6200E-7	-8.6730E-7	-8.688368E-7	-8.682497E-7	-8.693207E-7	-8.695208E-7	-8.682562E-7	  -20.0796	    7.4718	    3.4412	  -33.5981	
 -310.0000	-8.8310E-7	-8.7790E-7	-8.8270E-7	-8.8430E-7	-8.8750E-7	-8.774837E-7	-8.823741E-7	-8.788102E-7	-8.761343E-7	-8.726161E-7	  -20.0542	    7.4718	    3.4421	  -33.5953	
 -320.0000	-8.9188E-7	-8.9270E-7	-8.9300E-7	-8.9090E-7	-8.9090E-7	-8.837825E-7	-8.849772E-7	-8.829783E-7	-8.842077E-7	-8.829669E-7	  -20.0364	    7.4860	    3.4349	  -33.6069	
 -330.0000	-8.9847E-7	-8.9580E-7	-8.9980E-7	-8.9950E-7	-8.9880E-7	-8.981382E-7	-8.979142E-7	-8.979204E-7	-8.990679E-7	-8.976505E-7	  -20.0160	    7.4521	    3.4396	  -33.6164	
 -340.0000	-9.1937E-7	-9.1550E-7	-9.1620E-7	-9.1940E-7	-9.2640E-7	-9.246570E-7	-9.282437E-7	-9.272885E-7	-9.234993E-7	-9.195964E-7	  -20.0287	    7.5060	    3.4396	  -33.5790	
 -350.0000	-9.2615E-7	-9.2820E-7	-9.2700E-7	-9.2490E-7	-9.2450E-7	-9.233246E-7	-9.242872E-7	-9.233109E-7	-9.222723E-7	-9.234280E-7	  -20.0211	    7.5060	    3.4469	  -33.5576	
 -360.0000	-9.4060E-7	-9.4550E-7	-9.4250E-7	-9.3700E-7	-9.3740E-7	-9.290340E-7	-9.319614E-7	-9.303402E-7	-9.278359E-7	-9.259986E-7	  -20.0567	    7.4618	    3.4415	  -33.6041	
 -370.0000	-9.4705E-7	-9.4290E-7	-9.4640E-7	-9.4680E-7	-9.5210E-7	-9.462587E-7	-9.472462E-7	-9.452859E-7	-9.465716E-7	-9.459311E-7	  -20.0542	    7.4323	    3.4317	  -33.6536	
 -380.0000	-9.6532E-7	-9.6100E-7	-9.6510E-7	-9.6710E-7	-9.6810E-7	-9.648333E-7	-9.659072E-7	-9.651930E-7	-9.651708E-7	-9.630621E-7	  -20.0771	    7.5394	    3.4184	  -33.6186	
 -390.0000	-9.7650E-7	-9.7460E-7	-9.7830E-7	-9.7820E-7	-9.7490E-7	-9.696328E-7	-9.724408E-7	-9.696629E-7	-9.691798E-7	-9.672476E-7	  -19.9702	    7.5394	    3.4260	  -33.5961	
 -400.0000	-9.8092E-7	-9.7990E-7	-9.8090E-7	-9.8190E-7	-9.8100E-7	-9.742487E-7	-9.750195E-7	-9.747356E-7	-9.729861E-7	-9.742537E-7	  -19.9982	    7.5159	    3.4225	  -33.6227	
 -410.0000	-9.7975E-7	-9.8120E-7	-9.7980E-7	-9.7850E-7	-9.7950E-7	-9.723429E-7	-9.744103E-7	-9.722391E-7	-9.721380E-7	-9.705843E-7	  -20.0135	    7.5603	    3.4333	  -33.5600	
 -420.0000	-9.8345E-7	-9.8560E-7	-9.8410E-7	-9.8300E-7	-9.8110E-7	-9.791727E-7	-9.738854E-7	-9.771856E-7	-9.823588E-7	-9.832610E-7	  -20.0186	    7.4538	    3.4349	  -33.6293	
 -430.0000	-9.9743E-7	-9.9610E-7	-9.9340E-7	-9.9850E-7	-1.0017E-6	-1.000263E-6	-1.000005E-6	-1.000951E-6	-9.996875E-7	-1.000409E-6	  -19.9397	    7.4538	    3.4292	  -33.6461	
 -440.0000	-1.0075E-6	-1.0110E-6	-1.0100E-6	-1.0080E-6	-1.0010E-6	-9.961745E-7	-9.948824E-7	-9.949091E-7	-9.971124E-7	-9.977941E-7	  -19.9626	    7.4299	    3.4304	  -33.6590	
 -450.0000	-1.0155E-6	-1.0160E-6	-1.0130E-6	-1.0170E-6	-1.0160E-6	-1.007118E-6	-1.009394E-6	-1.007869E-6	-1.006831E-6	-1.004376E-6	  -19.9601	    7.4968	    3.4326	  -33.6060	
 -460.0000	-1.0237E-6	-1.0290E-6	-1.0280E-6	-1.0220E-6	-1.0160E-6	-1.006270E-6	-1.007132E-6	-1.007304E-6	-1.005797E-6	-1.004846E-6	  -19.9524	    7.4523	    3.4133	  -33.6941	
 -470.0000	-1.0262E-6	-1.0230E-6	-1.0250E-6	-1.0270E-6	-1.0300E-6	-1.023690E-6	-1.026853E-6	-1.024623E-6	-1.021617E-6	-1.021665E-6	  -19.8939	    7.4523	    3.4219	  -33.6687	
 -480.0000	-1.0393E-6	-1.0410E-6	-1.0370E-6	-1.0370E-6	-1.0420E-6	-1.038117E-6	-1.037642E-6	-1.038032E-6	-1.036973E-6	-1.039821E-6	  -19.9880	    7.4788	    3.4320	  -33.6204	
 -490.0000	-1.0528E-6	-1.0480E-6	-1.0500E-6	-1.0540E-6	-1.0590E-6	-1.053678E-6	-1.055662E-6	-1.055129E-6	-1.052364E-6	-1.051558E-6	  -19.9880	    7.4595	    3.4216	  -33.6647	
 -500.0000	-1.0555E-6	-1.0560E-6	-1.0560E-6	-1.0530E-6	-1.0570E-6	-1.049177E-6	-1.051832E-6	-1.049460E-6	-1.047905E-6	-1.047511E-6	  -20.0160	    7.4856	    3.4323	  -33.6147	
 -510.0000	-1.0733E-6	-1.0690E-6	-1.0700E-6	-1.0780E-6	-1.0760E-6	-1.058616E-6	-1.062470E-6	-1.058222E-6	-1.057485E-6	-1.056286E-6	  -19.9855	    7.4856	    3.4396	  -33.5932	
 -520.0000	-1.0658E-6	-1.0640E-6	-1.0630E-6	-1.0670E-6	-1.0690E-6	-1.057439E-6	-1.057512E-6	-1.057705E-6	-1.057415E-6	-1.057123E-6	  -19.9397	    7.4772	    3.4333	  -33.6177	
 -530.0000	-1.0760E-6	-1.0740E-6	-1.0750E-6	-1.0760E-6	-1.0790E-6	-1.071967E-6	-1.072339E-6	-1.072268E-6	-1.071836E-6	-1.071426E-6	  -19.8914	    7.4428	    3.4323	  -33.6444	
 -540.0000	-1.0745E-6	-1.0750E-6	-1.0720E-6	-1.0740E-6	-1.0770E-6	-1.071069E-6	-1.070214E-6	-1.070753E-6	-1.072020E-6	-1.071290E-6	  -19.9702	    7.4766	    3.4367	  -33.6078	
 -550.0000	-1.0887E-6	-1.0830E-6	-1.0840E-6	-1.0930E-6	-1.0950E-6	-1.093214E-6	-1.092267E-6	-1.092270E-6	-1.094221E-6	-1.094098E-6	  -19.9372	    7.4766	    3.4342	  -33.6153	
 -560.0000	-1.1015E-6	-1.1020E-6	-1.1020E-6	-1.1010E-6	-1.1010E-6	-1.096395E-6	-1.095379E-6	-1.095420E-6	-1.097291E-6	-1.097492E-6	  -19.9524	    7.4940	    3.4260	  -33.6276	
 -570.0000	-1.1080E-6	-1.1080E-6	-1.1060E-6	-1.1080E-6	-1.1100E-6	-1.106328E-6	-1.104083E-6	-1.106603E-6	-1.107913E-6	-1.106713E-6	  -19.9168	    7.4742	    3.4250	  -33.6441	
 -580.0000	-1.1115E-6	-1.1110E-6	-1.1130E-6	-1.1110E-6	-1.1110E-6	-1.101015E-6	-1.100585E-6	-1.100504E-6	-1.101096E-6	-1.101874E-6	  -19.8634	    7.4589	    3.4194	  -33.6717	
 -590.0000	-1.1227E-6	-1.1260E-6	-1.1220E-6	-1.1190E-6	-1.1240E-6	-1.117070E-6	-1.117987E-6	-1.115866E-6	-1.117225E-6	-1.117201E-6	  -19.9982	    7.4589	    3.4058	  -33.7121	
 -600.0000	-1.1130E-6	-1.1190E-6	-1.1120E-6	-1.1120E-6	-1.1090E-6	-1.097268E-6	-1.097313E-6	-1.095838E-6	-1.098186E-6	-1.097737E-6	  -19.9728	    7.4615	    3.4127	  -33.6896	
 -610.0000	-1.1285E-6	-1.1230E-6	-1.1290E-6	-1.1310E-6	-1.1310E-6	-1.125525E-6	-1.125915E-6	-1.126033E-6	-1.125016E-6	-1.125137E-6	  -19.9601	    7.5130	    3.4156	  -33.6454	
 -620.0000	-1.1323E-6	-1.1350E-6	-1.1340E-6	-1.1300E-6	-1.1300E-6	-1.117916E-6	-1.120821E-6	-1.117664E-6	-1.116678E-6	-1.116502E-6	  -19.9372	    7.5141	    3.4039	  -33.6794	
 -630.0000	-1.1397E-6	-1.1420E-6	-1.1390E-6	-1.1370E-6	-1.1410E-6	-1.136115E-6	-1.136527E-6	-1.137012E-6	-1.137903E-6	-1.133020E-6	  -20.0135	    7.5141	    3.4077	  -33.6681	
 -640.0000	-1.1378E-6	-1.1340E-6	-1.1380E-6	-1.1410E-6	-1.1380E-6	-1.126709E-6	-1.128308E-6	-1.127990E-6	-1.125262E-6	-1.125275E-6	  -20.0364	    7.4963	    3.3978	  -33.7097	
 -650.0000	-1.1445E-6	-1.1480E-6	-1.1460E-6	-1.1420E-6	-1.1420E-6	-1.130620E-6	-1.133875E-6	-1.132459E-6	-1.129506E-6	-1.126640E-6	  -19.9779	    7.4467	    3.3915	  -33.7630	
 -660.0000	-1.1412E-6	-1.1410E-6	-1.1410E-6	-1.1420E-6	-1.1410E-6	-1.130704E-6	-1.131776E-6	-1.129372E-6	-1.131633E-6	-1.130036E-6	  -20.0440	    7.4553	    3.3994	  -33.7334	
 -670.0000	-1.1477E-6	-1.1450E-6	-1.1510E-6	-1.1490E-6	-1.1460E-6	-1.139109E-6	-1.136237E-6	-1.138149E-6	-1.140463E-6	-1.141588E-6	  -20.0796	    7.4553	    3.4127	  -33.6939	
 -680.0000	-1.1620E-6	-1.1630E-6	-1.1620E-6	-1.1610E-6	-1.1620E-6	-1.150337E-6	-1.151586E-6	-1.151152E-6	-1.149218E-6	-1.149390E-6	  -20.0669	    7.4765	    3.4143	  -33.6745	
 -690.0000	-1.1585E-6	-1.1620E-6	-1.1600E-6	-1.1570E-6	-1.1550E-6	-1.148083E-6	-1.142697E-6	-1.147104E-6	-1.147983E-6	-1.154549E-6	  -20.0211	    7.4665	    3.4054	  -33.7078	
 -700.0000	-1.1658E-6	-1.1660E-6	-1.1680E-6	-1.1660E-6	-1.1630E-6	-1.148506E-6	-1.151611E-6	-1.148640E-6	-1.147323E-6	-1.146452E-6	  -20.0287	    7.5123	    3.4007	  -33.6901	
 -710.0000	-1.1740E-6	-1.1740E-6	-1.1710E-6	-1.1740E-6	-1.1770E-6	-1.166649E-6	-1.168949E-6	-1.168214E-6	-1.165334E-6	-1.164101E-6	  -20.0415	    7.5123	    3.3960	  -33.7043	
 -720.0000	-1.1715E-6	-1.1710E-6	-1.1740E-6	-1.1740E-6	-1.1670E-6	-1.156337E-6	-1.152945E-6	-1.154270E-6	-1.157653E-6	-1.160482E-6	  -20.0618	    7.5248	    3.3925	  -33.7061	
 -730.0000	-1.1798E-6	-1.1830E-6	-1.1830E-6	-1.1780E-6	-1.1750E-6	-1.167359E-6	-1.167672E-6	-1.169323E-6	-1.166196E-6	-1.166244E-6	  -20.0567	    7.5279	    3.3915	  -33.7067	
 -740.0000	-1.1870E-6	-1.1840E-6	-1.1880E-6	-1.1900E-6	-1.1860E-6	-1.172371E-6	-1.176133E-6	-1.170514E-6	-1.170835E-6	-1.172001E-6	  -20.0847	    7.5453	    3.3899	  -33.6994	
 -750.0000	-1.1965E-6	-1.1950E-6	-1.1930E-6	-1.1990E-6	-1.1990E-6	-1.185420E-6	-1.190633E-6	-1.185584E-6	-1.181746E-6	-1.183715E-6	  -20.0313	    7.5453	    3.3966	  -33.6795	
 -760.0000	-1.1903E-6	-1.1940E-6	-1.1910E-6	-1.1860E-6	-1.1900E-6	-1.180196E-6	-1.179816E-6	-1.178624E-6	-1.180303E-6	-1.182042E-6	  -19.9982	    7.5476	    3.3855	  -33.7110	
 -770.0000	-1.2008E-6	-1.1990E-6	-1.1990E-6	-1.2020E-6	-1.2030E-6	-1.184268E-6	-1.186834E-6	-1.184962E-6	-1.183827E-6	-1.181448E-6	  -20.0796	    7.6187	    3.3953	  -33.6324	
 -780.0000	-1.2000E-6	-1.2010E-6	-1.2050E-6	-1.2010E-6	-1.1930E-6	-1.182067E-6	-1.181859E-6	-1.182035E-6	-1.182190E-6	-1.182185E-6	  -20.0593	    7.5112	    3.4140	  -33.6514	
 -790.0000	-1.2003E-6	-1.2030E-6	-1.2040E-6	-1.2010E-6	-1.1930E-6	-1.182195E-6	-1.182154E-6	-1.182676E-6	-1.182013E-6	-1.181938E-6	  -20.0109	    7.5112	    3.4124	  -33.6561	
 -800.0000	-1.2067E-6	-1.2100E-6	-1.2060E-6	-1.2040E-6	-1.2070E-6	-1.196795E-6	-1.196397E-6	-1.194701E-6	-1.196041E-6	-1.200040E-6	  -20.0109	    7.5173	    3.4127	  -33.6509	
 -810.0000	-1.2100E-6	-1.2130E-6	-1.2110E-6	-1.2080E-6	-1.2080E-6	-1.202319E-6	-1.200816E-6	-1.203386E-6	-1.204011E-6	-1.201063E-6	  -20.0415	    7.5352	    3.4048	  -33.6620	
 -820.0000	-1.2223E-6	-1.2200E-6	-1.2220E-6	-1.2240E-6	-1.2230E-6	-1.208668E-6	-1.210814E-6	-1.208336E-6	-1.207008E-6	-1.208515E-6	  -19.9804	    7.4532	    3.3941	  -33.7510	
 -830.0000	-1.2125E-6	-1.2110E-6	-1.2120E-6	-1.2140E-6	-1.2130E-6	-1.203587E-6	-1.199268E-6	-1.199950E-6	-1.204976E-6	-1.210156E-6	  -20.0516	    7.4532	    3.4054	  -33.7170	
 -840.0000	-1.2220E-6	-1.2250E-6	-1.2200E-6	-1.2190E-6	-1.2240E-6	-1.211318E-6	-1.211640E-6	-1.211628E-6	-1.211659E-6	-1.210344E-6	  -20.0008	    7.4724	    3.4051	  -33.7046	
 -850.0000	-1.2318E-6	-1.2290E-6	-1.2340E-6	-1.2340E-6	-1.2300E-6	-1.216978E-6	-1.216433E-6	-1.216337E-6	-1.218160E-6	-1.216983E-6	  -20.0262	    7.4689	    3.3918	  -33.7467	
 -860.0000	-1.2305E-6	-1.2250E-6	-1.2280E-6	-1.2330E-6	-1.2360E-6	-1.228479E-6	-1.226995E-6	-1.227017E-6	-1.230884E-6	-1.229022E-6	  -20.0033	    7.4547	    3.3947	  -33.7481	
 -870.0000	-1.2313E-6	-1.2360E-6	-1.2330E-6	-1.2310E-6	-1.2250E-6	-1.205789E-6	-1.207088E-6	-1.205514E-6	-1.205445E-6	-1.205107E-6	  -20.0465	    7.4547	    3.3865	  -33.7726	
 -880.0000	-1.2275E-6	-1.2310E-6	-1.2290E-6	-1.2220E-6	-1.2280E-6	-1.220054E-6	-1.217178E-6	-1.218554E-6	-1.218594E-6	-1.225890E-6	  -20.0567	    7.4696	    3.3944	  -33.7387	
 -890.0000	-1.2505E-6	-1.2510E-6	-1.2560E-6	-1.2490E-6	-1.2460E-6	-1.232582E-6	-1.231317E-6	-1.232607E-6	-1.232498E-6	-1.233906E-6	  -20.0211	    7.5224	    3.3903	  -33.7143	
 -900.0000	-1.2418E-6	-1.2370E-6	-1.2400E-6	-1.2460E-6	-1.2440E-6	-1.234059E-6	-1.231358E-6	-1.233876E-6	-1.236033E-6	-1.234970E-6	  -20.0109	    7.5053	    3.3896	  -33.7281	
 -910.0000	-1.2450E-6	-1.2490E-6	-1.2480E-6	-1.2430E-6	-1.2400E-6	-1.223272E-6	-1.224849E-6	-1.223260E-6	-1.221852E-6	-1.223127E-6	  -20.0186	    7.4946	    3.4004	  -33.7034	
 -920.0000	-1.2518E-6	-1.2520E-6	-1.2520E-6	-1.2540E-6	-1.2490E-6	-1.238628E-6	-1.235493E-6	-1.238098E-6	-1.240066E-6	-1.240854E-6	  -20.0059	    7.5236	    3.4023	  -33.6776	
 -930.0000	-1.2565E-6	-1.2550E-6	-1.2560E-6	-1.2550E-6	-1.2600E-6	-1.242116E-6	-1.246485E-6	-1.243415E-6	-1.239457E-6	-1.239106E-6	  -19.9931	    7.4893	    3.4032	  -33.6986	
 -940.0000	-1.2692E-6	-1.2690E-6	-1.2740E-6	-1.2680E-6	-1.2660E-6	-1.256950E-6	-1.256192E-6	-1.259173E-6	-1.255924E-6	-1.256512E-6	  -19.9753	    7.5332	    3.4190	  -33.6210	
 -950.0000	-1.2792E-6	-1.2740E-6	-1.2790E-6	-1.2820E-6	-1.2820E-6	-1.260513E-6	-1.265454E-6	-1.260976E-6	-1.257270E-6	-1.258351E-6	  -19.9550	    7.5585	    3.4137	  -33.6194	
 -960.0000	-1.2825E-6	-1.2810E-6	-1.2850E-6	-1.2810E-6	-1.2830E-6	-1.265465E-6	-1.263594E-6	-1.262009E-6	-1.267117E-6	-1.269140E-6	  -20.0364	    7.5253	    3.4250	  -33.6087	
 -970.0000	-1.2873E-6	-1.2870E-6	-1.2850E-6	-1.2880E-6	-1.2890E-6	-1.269248E-6	-1.269649E-6	-1.271074E-6	-1.267176E-6	-1.269094E-6	  -20.0135	    7.4787	    3.4219	  -33.6504	
 -980.0000	-1.2788E-6	-1.2790E-6	-1.2760E-6	-1.2790E-6	-1.2810E-6	-1.261536E-6	-1.263832E-6	-1.261415E-6	-1.259489E-6	-1.261408E-6	  -19.9652	    7.4905	    3.4168	  -33.6572	
 -990.0000	-1.2905E-6	-1.2910E-6	-1.2930E-6	-1.2910E-6	-1.2870E-6	-1.269812E-6	-1.268620E-6	-1.270041E-6	-1.271778E-6	-1.268810E-6	  -20.0313	    7.4830	    3.4092	  -33.6850	
-1000.0000	-1.2868E-6	-1.2860E-6	-1.2810E-6	-1.2850E-6	-1.2950E-6	-1.282652E-6	-1.283596E-6	-1.285606E-6	-1.281967E-6	-1.279440E-6	  -20.0059	    7.5357	    3.4102	  -33.6456	
