GCD Test
Bias: 5000.000000
CV_34253_037_PSS_HM_XX_DIODE
Date/Time: 4/11/2021 4:01:32 PM
Sensor Name: DIODE
Type: P
Annealing Status: Unirradiated, Not Annealed
Environment: RT
Tester: Andrew Kent

Time Delay per Ramp Step (s): 0.500

CV Time Delay per Measurement (s) :0.500

AC Voltage (V): 0.500

Current Number of measurements per voltage: 4.000

IV Time Delay per Measurement (s) :0.000


BiasVoltage	LCR_Cp_freq1000.0	LCR_Cp_freq10000.0	LCR_Rp_freq1000.0	LCR_Rp_freq10000.0	Temperature	Air_Temp	Humidity	Dewpoint	
   -5.0000	9.330E-11	9.344E-11	7.944E+8	8.823E+7	   23.0141	   23.3215	   35.1948	    7.0885	
  -10.0000	6.818E-11	6.820E-11	1.039E+9	1.074E+8	   23.0141	   23.3174	   35.2261	    7.0979	
  -15.0000	5.660E-11	5.644E-11	1.088E+9	1.212E+8	   23.0141	   23.3173	   35.2261	    7.0978	
  -20.0000	4.945E-11	4.911E-11	1.001E+9	1.299E+8	   23.0141	   23.3177	   35.2195	    7.0954	
  -25.0000	4.416E-11	4.388E-11	1.071E+9	1.352E+8	   23.0141	   23.3219	   35.2160	    7.0976	
  -30.0000	4.006E-11	3.981E-11	1.170E+9	1.374E+8	   23.0141	   23.3208	   35.2343	    7.1043	
  -35.0000	3.668E-11	3.646E-11	1.191E+9	1.386E+8	   23.0141	   23.3213	   35.2287	    7.1024	
  -40.0000	3.385E-11	3.365E-11	1.278E+9	1.338E+8	   23.0115	   23.3204	   35.2211	    7.0984	
  -45.0000	3.166E-11	3.150E-11	1.431E+9	1.157E+8	   23.0141	   23.3179	   35.2299	    7.0999	
  -50.0000	3.007E-11	2.989E-11	1.288E+9	7.181E+7	   23.0141	   23.3212	   35.2315	    7.1035	
  -55.0000	2.876E-11	2.844E-11	8.687E+8	3.427E+7	   23.0115	   23.3238	   35.2309	    7.1054	
  -60.0000	2.754E-11	2.706E-11	5.997E+8	1.607E+7	   23.0141	   23.3244	   35.2302	    7.1058	
  -65.0000	2.656E-11	2.487E-11	2.913E+8	1.061E+7	   23.0141	   23.3240	   35.2340	    7.1069	
  -70.0000	2.517E-11	2.307E-11	1.242E+8	1.872E+7	   23.0141	   23.3210	   35.2369	    7.1055	
  -75.0000	2.315E-11	2.219E-11	1.192E+8	4.763E+7	   23.0115	   23.3232	   35.2315	    7.1052	
  -80.0000	2.184E-11	2.154E-11	2.701E+8	1.029E+8	   23.0141	   23.3232	   35.2375	    7.1077	
  -85.0000	2.116E-11	2.102E-11	5.996E+8	2.005E+8	   23.0141	   23.3229	   35.2372	    7.1073	
  -90.0000	2.066E-11	2.055E-11	9.854E+8	2.516E+8	   23.0141	   23.3236	   35.2321	    7.1058	
  -95.0000	2.022E-11	2.012E-11	1.101E+9	2.737E+8	   23.0141	   23.3252	   35.2394	    7.1103	
 -100.0000	1.982E-11	1.973E-11	1.176E+9	2.819E+8	   23.0141	   23.3216	   35.2404	    7.1074	
 -105.0000	1.946E-11	1.937E-11	1.219E+9	2.890E+8	   23.0141	   23.3197	   35.2296	    7.1013	
 -110.0000	1.913E-11	1.904E-11	1.248E+9	2.980E+8	   23.0141	   23.3208	   35.2258	    7.1007	
 -115.0000	1.880E-11	1.874E-11	1.396E+9	2.797E+8	   23.0141	   23.3201	   35.2290	    7.1014	
 -120.0000	1.852E-11	1.845E-11	1.427E+9	2.855E+8	   23.0141	   23.3211	   35.2321	    7.1037	
 -125.0000	1.825E-11	1.819E-11	1.653E+9	2.874E+8	   23.0141	   23.3203	   35.2293	    7.1017	
 -130.0000	1.800E-11	1.794E-11	1.817E+9	2.911E+8	   23.0141	   23.3232	   35.2337	    7.1061	
 -135.0000	1.776E-11	1.770E-11	1.736E+9	2.966E+8	   23.0141	   23.3205	   35.2366	    7.1049	
 -140.0000	1.754E-11	1.747E-11	1.782E+9	2.996E+8	   23.0141	   23.3193	   35.2404	    7.1055	
 -145.0000	1.733E-11	1.727E-11	1.902E+9	3.068E+8	   23.0141	   23.3171	   35.2353	    7.1014	
 -150.0000	1.713E-11	1.706E-11	1.904E+9	2.996E+8	   23.0141	   23.3227	   35.2315	    7.1048	
 -155.0000	1.694E-11	1.687E-11	2.136E+9	3.018E+8	   23.0141	   23.3258	   35.2375	    7.1100	
 -160.0000	1.676E-11	1.669E-11	2.062E+9	2.962E+8	   23.0141	   23.3245	   35.2302	    7.1058	
 -165.0000	1.659E-11	1.652E-11	1.843E+9	2.984E+8	   23.0141	   23.3222	   35.2381	    7.1071	
 -170.0000	1.642E-11	1.635E-11	1.828E+9	3.001E+8	   23.0141	   23.3224	   35.2372	    7.1069	
 -175.0000	1.627E-11	1.619E-11	2.055E+9	2.989E+8	   23.0141	   23.3242	   35.2201	    7.1014	
 -180.0000	1.611E-11	1.604E-11	1.985E+9	3.006E+8	   23.0141	   23.3219	   35.2173	    7.0982	
 -185.0000	1.596E-11	1.589E-11	2.006E+9	3.060E+8	   23.0166	   23.3230	   35.2277	    7.1034	
 -190.0000	1.582E-11	1.575E-11	2.132E+9	3.030E+8	   23.0141	   23.3197	   35.2207	    7.0977	
 -195.0000	1.567E-11	1.561E-11	1.871E+9	3.054E+8	   23.0141	   23.3201	   35.2192	    7.0974	
 -200.0000	1.554E-11	1.547E-11	2.094E+9	3.092E+8	   23.0141	   23.3183	   35.2261	    7.0986	
 -205.0000	1.541E-11	1.534E-11	2.216E+9	3.136E+8	   23.0141	   23.3227	   35.2160	    7.0984	
 -210.0000	1.527E-11	1.520E-11	2.158E+9	3.068E+8	   23.0141	   23.3222	   35.2296	    7.1036	
 -215.0000	1.514E-11	1.507E-11	1.891E+9	3.075E+8	   23.0166	   23.3246	   35.2441	    7.1116	
 -220.0000	1.501E-11	1.495E-11	2.152E+9	3.118E+8	   23.0166	   23.3172	   35.2394	    7.1032	
 -225.0000	1.488E-11	1.482E-11	2.144E+9	3.083E+8	   23.0141	   23.3203	   35.2343	    7.1038	
 -230.0000	1.477E-11	1.470E-11	2.128E+9	3.123E+8	   23.0166	   23.3197	   35.2293	    7.1012	
 -235.0000	1.465E-11	1.459E-11	2.162E+9	3.094E+8	   23.0166	   23.3197	   35.2321	    7.1024	
 -240.0000	1.456E-11	1.449E-11	2.214E+9	2.973E+8	   23.0141	   23.3158	   35.2271	    7.0969	
 -245.0000	1.448E-11	1.441E-11	2.009E+9	2.969E+8	   23.0166	   23.3217	   35.2385	    7.1068	
 -250.0000	1.442E-11	1.435E-11	2.108E+9	3.123E+8	   23.0166	   23.3205	   35.2312	    7.1027	
 -255.0000	1.438E-11	1.431E-11	2.095E+9	3.086E+8	   23.0166	   23.3217	   35.2258	    7.1015	
 -260.0000	1.436E-11	1.429E-11	2.259E+9	3.118E+8	   23.0166	   23.3157	   35.2391	    7.1017	
 -265.0000	1.433E-11	1.427E-11	2.119E+9	3.109E+8	   23.0166	   23.3240	   35.2369	    7.1081	
 -270.0000	1.432E-11	1.425E-11	2.314E+9	3.118E+8	   23.0166	   23.3245	   35.2464	    7.1125	
 -275.0000	1.431E-11	1.424E-11	2.094E+9	3.141E+8	   23.0141	   23.3224	   35.2324	    7.1049	
 -280.0000	1.430E-11	1.423E-11	2.089E+9	2.967E+8	   23.0166	   23.3250	   35.2495	    7.1142	
 -285.0000	1.429E-11	1.422E-11	2.151E+9	3.188E+8	   23.0166	   23.3227	   35.2366	    7.1069	
 -290.0000	1.428E-11	1.421E-11	2.260E+9	3.130E+8	   23.0166	   23.3178	   35.2407	    7.1042	
 -295.0000	1.427E-11	1.421E-11	2.087E+9	3.152E+8	   23.0141	   23.3222	   35.2464	    7.1104	
 -300.0000	1.427E-11	1.420E-11	2.338E+9	3.102E+8	   23.0166	   23.3248	   35.2350	    7.1080	
 -305.0000	1.427E-11	1.420E-11	2.326E+9	3.189E+8	   23.0141	   23.3214	   35.2441	    7.1088	
 -310.0000	1.425E-11	1.419E-11	2.368E+9	3.128E+8	   23.0166	   23.3197	   35.2337	    7.1031	
 -315.0000	1.426E-11	1.419E-11	2.215E+9	3.128E+8	   23.0166	   23.3239	   35.2423	    7.1102	
 -320.0000	1.425E-11	1.418E-11	2.150E+9	3.114E+8	   23.0166	   23.3206	   35.2347	    7.1042	
 -325.0000	1.425E-11	1.418E-11	2.338E+9	3.125E+8	   23.0141	   23.3207	   35.2388	    7.1060	
 -330.0000	1.425E-11	1.418E-11	2.215E+9	2.970E+8	   23.0141	   23.3216	   35.2394	    7.1071	
 -335.0000	1.424E-11	1.417E-11	2.196E+9	3.139E+8	   23.0166	   23.3229	   35.2296	    7.1041	
 -340.0000	1.424E-11	1.417E-11	2.371E+9	3.108E+8	   23.0166	   23.3225	   35.2369	    7.1068	
 -345.0000	1.423E-11	1.417E-11	2.239E+9	3.128E+8	   23.0141	   23.3225	   35.2397	    7.1080	
 -350.0000	1.423E-11	1.417E-11	2.407E+9	3.128E+8	   23.0166	   23.3208	   35.2388	    7.1061	
 -355.0000	1.423E-11	1.416E-11	2.218E+9	3.119E+8	   23.0166	   23.3224	   35.2211	    7.1001	
 -360.0000	1.423E-11	1.416E-11	2.480E+9	3.148E+8	   23.0166	   23.3242	   35.2306	    7.1057	
 -365.0000	1.422E-11	1.416E-11	2.343E+9	3.156E+8	   23.0166	   23.3228	   35.2312	    7.1048	
 -370.0000	1.422E-11	1.416E-11	2.195E+9	3.098E+8	   23.0166	   23.3252	   35.2366	    7.1091	
 -375.0000	1.422E-11	1.416E-11	2.098E+9	3.098E+8	   23.0166	   23.3260	   35.2302	    7.1071	
 -380.0000	1.422E-11	1.415E-11	2.135E+9	3.136E+8	   23.0166	   23.3257	   35.2274	    7.1057	
 -385.0000	1.422E-11	1.415E-11	2.380E+9	3.169E+8	   23.0166	   23.3239	   35.2296	    7.1050	
 -390.0000	1.422E-11	1.415E-11	2.273E+9	3.161E+8	   23.0166	   23.3199	   35.2268	    7.1004	
 -395.0000	1.422E-11	1.415E-11	2.320E+9	3.165E+8	   23.0141	   23.3261	   35.2277	    7.1062	
 -400.0000	1.422E-11	1.415E-11	2.358E+9	3.127E+8	   23.0166	   23.3240	   35.2343	    7.1071	
 -410.0000	1.421E-11	1.415E-11	2.204E+9	3.119E+8	   23.0141	   23.3232	   35.2347	    7.1065	
 -420.0000	1.421E-11	1.415E-11	2.385E+9	3.190E+8	   23.0166	   23.3256	   35.2340	    7.1084	
 -430.0000	1.421E-11	1.414E-11	2.430E+9	3.127E+8	   23.0166	   23.3216	   35.2188	    7.0985	
 -440.0000	1.420E-11	1.414E-11	2.057E+9	3.127E+8	   23.0166	   23.3263	   35.2170	    7.1019	
 -450.0000	1.421E-11	1.414E-11	2.265E+9	3.108E+8	   23.0192	   23.3239	   35.2236	    7.1025	
 -460.0000	1.420E-11	1.414E-11	2.277E+9	3.147E+8	   23.0166	   23.3224	   35.2059	    7.0939	
 -470.0000	1.420E-11	1.413E-11	2.108E+9	3.132E+8	   23.0166	   23.3210	   35.2176	    7.0975	
 -480.0000	1.420E-11	1.413E-11	2.159E+9	3.125E+8	   23.0166	   23.3214	   35.2147	    7.0967	
 -490.0000	1.419E-11	1.413E-11	2.335E+9	3.133E+8	   23.0166	   23.3213	   35.2151	    7.0968	
 -500.0000	1.419E-11	1.413E-11	2.279E+9	3.217E+8	   23.0166	   23.3206	   35.2198	    7.0980	
 -510.0000	1.419E-11	1.413E-11	2.236E+9	3.109E+8	   23.0166	   23.3232	   35.2147	    7.0982	
 -520.0000	1.419E-11	1.413E-11	2.327E+9	3.146E+8	   23.0166	   23.3243	   35.2065	    7.0958	
 -530.0000	1.419E-11	1.412E-11	2.140E+9	3.136E+8	   23.0166	   23.3236	   35.2252	    7.1029	
 -540.0000	1.419E-11	1.412E-11	2.312E+9	2.992E+8	   23.0166	   23.3259	   35.2094	    7.0984	
 -550.0000	1.419E-11	1.412E-11	2.149E+9	3.150E+8	   23.0192	   23.3262	   35.2147	    7.1009	
 -560.0000	1.418E-11	1.412E-11	2.287E+9	3.137E+8	   23.0166	   23.3233	   35.2056	    7.0946	
 -570.0000	1.418E-11	1.412E-11	2.250E+9	3.153E+8	   23.0166	   23.3253	   35.2037	    7.0956	
 -580.0000	1.419E-11	1.412E-11	2.113E+9	3.115E+8	   23.0166	   23.3246	   35.2081	    7.0967	
 -590.0000	1.418E-11	1.412E-11	2.159E+9	3.117E+8	   23.0166	   23.3224	   35.2059	    7.0939	
 -600.0000	1.418E-11	1.412E-11	2.230E+9	3.124E+8	   23.0192	   23.3202	   35.1977	    7.0886	
