GCD Test
Bias: 5000.000000
IV_D0_CO141_LargeDiode_GRConnected_Irradiated
Date/Time: 7/29/2021 11:01:49 AM
Sensor Name: CO141
Type: N
Annealing Status: Irradiated not Annealed
Environment: -20C
Tester: Andrew Kent

Time Delay per Ramp Step (s): 0.500

CV Time Delay per Measurement (s) :0.500

AC Voltage (V): 0.500

Current Number of measurements per voltage: 4.000

IV Time Delay per Measurement (s) :0.000


BiasVoltage	Total Current_Avg	Total Current_0	Total Current_1	Total Current_2	Total Current_3	Bias Current_Avg	Bias Current_0	Bias Current_1	Bias Current_2	Bias Current_3	Temperature	Air_Temp	Humidity	Dewpoint	
    1.0000	1.5750E-11	1.3300E-10	7.2000E-11	3.1000E-11	-1.7300E-10	-2.465619E-12	-2.297913E-12	-2.780302E-12	-2.077089E-12	-2.707170E-12	  -19.8558	   14.7218	    3.9238	  -27.1803	
    2.0000	1.1000E-10	1.0000E-12	5.8000E-11	2.3700E-10	1.4400E-10	-2.813762E-12	-3.398568E-12	-2.351285E-12	-2.880325E-12	-2.624871E-12	  -19.9499	   14.9563	    3.9260	  -27.0107	
    3.0000	2.3575E-10	2.1900E-10	3.0100E-10	2.1700E-10	2.0600E-10	-2.356683E-12	-2.100107E-12	-2.282838E-12	-2.449067E-12	-2.594721E-12	  -19.9880	   14.6174	    3.9178	  -27.2696	
    4.0000	1.2775E-10	1.2500E-10	7.8000E-11	1.4400E-10	1.6400E-10	-2.507480E-12	-2.192388E-12	-2.424212E-12	-2.603683E-12	-2.809636E-12	  -20.0415	   14.9606	    3.9197	  -27.0252	
    5.0000	2.5450E-10	3.4500E-10	3.5500E-10	1.7800E-10	1.4000E-10	-2.640860E-12	-2.665203E-12	-2.855674E-12	-2.574756E-12	-2.467807E-12	  -20.1457	   14.5124	    3.9064	  -27.3741	
    6.0000	3.0200E-10	4.1000E-10	3.7000E-10	1.9100E-10	2.3700E-10	-2.821043E-12	-2.833062E-12	-3.012125E-12	-2.506512E-12	-2.932474E-12	  -20.1992	   15.0744	    3.8899	  -27.0284	
    7.0000	3.9025E-10	4.8000E-10	4.5700E-10	3.9300E-10	2.3100E-10	-2.738897E-12	-3.130890E-12	-2.537884E-12	-2.657056E-12	-2.629759E-12	  -20.2322	   14.8848	    3.8877	  -27.1665	
    8.0000	3.7525E-10	4.7200E-10	2.8200E-10	3.7300E-10	3.7400E-10	-2.482526E-12	-2.778672E-12	-2.677631E-12	-2.577404E-12	-1.896396E-12	  -20.3111	   14.6989	    3.8890	  -27.2923	
    9.0000	4.7350E-10	5.6600E-10	5.7200E-10	3.8700E-10	3.6900E-10	0.000000E+0	0.000000E+0	0.000000E+0	0.000000E+0	0.000000E+0	    0.0000	    0.0000	    0.0000	    0.0000	
