GCD Test
Bias: 5000.000000
IV_34253_037_PSS_HM_XX_DIODEHALFPSTOP_Irradiated
Date/Time: 5/24/2021 12:56:32 PM
Sensor Name: DIODEHALFPSTOP
Type: P
Annealing Status: Irradiated, Second Annealing
Environment: -20C
Tester: Andrew Kent

Time Delay per Ramp Step (s): 1.000

CV Time Delay per Measurement (s) :0.500

AC Voltage (V): 0.500

Current Number of measurements per voltage: 4.000

IV Time Delay per Measurement (s) :0.000


BiasVoltage	Total Current_Avg	Total Current_0	Total Current_1	Total Current_2	Total Current_3	Bias Current_Avg	Bias Current_0	Bias Current_1	Bias Current_2	Bias Current_3	Temperature	Air_Temp	Humidity	Dewpoint	
  -10.0000	-3.2100E-7	-3.2090E-7	-3.2110E-7	-3.2090E-7	-3.2110E-7	-3.195441E-7	-3.197163E-7	-3.206378E-7	-3.193392E-7	-3.184832E-7	  -20.9672	   12.1928	    3.7897	  -29.3142	
  -20.0000	-4.3223E-7	-4.3250E-7	-4.3230E-7	-4.3160E-7	-4.3250E-7	-4.309268E-7	-4.314139E-7	-4.313008E-7	-4.312298E-7	-4.297628E-7	  -20.9240	   12.2326	    3.7404	  -29.4252	
  -30.0000	-5.1510E-7	-5.1920E-7	-5.1610E-7	-5.1380E-7	-5.1130E-7	-5.084069E-7	-5.098057E-7	-5.090764E-7	-5.078907E-7	-5.068548E-7	  -20.8757	   12.2326	    3.7027	  -29.5320	
  -40.0000	-5.7928E-7	-5.7830E-7	-5.7790E-7	-5.7980E-7	-5.8110E-7	-5.824205E-7	-5.812474E-7	-5.804053E-7	-5.842458E-7	-5.837834E-7	  -20.8528	   12.2129	    3.6395	  -29.7275	
  -50.0000	-6.4125E-7	-6.3970E-7	-6.4270E-7	-6.4430E-7	-6.3830E-7	-6.401872E-7	-6.380459E-7	-6.390491E-7	-6.421590E-7	-6.414947E-7	  -20.7256	   12.2141	    3.5591	  -29.9618	
  -60.0000	-6.9843E-7	-6.9980E-7	-6.9840E-7	-6.9650E-7	-6.9900E-7	-7.001008E-7	-6.987963E-7	-6.996589E-7	-7.020046E-7	-6.999433E-7	  -20.6646	   12.1910	    3.5531	  -29.9955	
  -70.0000	-7.4437E-7	-7.4390E-7	-7.4620E-7	-7.4380E-7	-7.4360E-7	-7.440309E-7	-7.455615E-7	-7.437191E-7	-7.435142E-7	-7.433289E-7	  -20.6112	   12.2014	    3.4877	  -30.1837	
  -80.0000	-7.8497E-7	-7.8330E-7	-7.8650E-7	-7.8520E-7	-7.8490E-7	-7.836131E-7	-7.854238E-7	-7.833137E-7	-7.829390E-7	-7.827759E-7	  -20.5349	   12.1842	    3.4633	  -30.2691	
  -90.0000	-8.2205E-7	-8.1760E-7	-8.1930E-7	-8.2280E-7	-8.2850E-7	-8.295465E-7	-8.307999E-7	-8.286908E-7	-8.289991E-7	-8.296963E-7	  -20.4179	   12.1726	    3.4279	  -30.3849	
 -100.0000	-8.6685E-7	-8.6860E-7	-8.6380E-7	-8.6570E-7	-8.6930E-7	-8.684307E-7	-8.689894E-7	-8.668981E-7	-8.698639E-7	-8.679713E-7	  -20.3085	   12.1408	    3.4023	  -30.4854	
 -110.0000	-9.0820E-7	-9.0740E-7	-9.1010E-7	-9.0730E-7	-9.0800E-7	-9.103514E-7	-9.120849E-7	-9.097627E-7	-9.089289E-7	-9.106292E-7	  -20.2424	   12.1500	    3.3457	  -30.6545	
 -120.0000	-9.5025E-7	-9.5110E-7	-9.5190E-7	-9.5010E-7	-9.4790E-7	-9.491961E-7	-9.495792E-7	-9.495679E-7	-9.475897E-7	-9.500477E-7	  -20.1661	   12.1379	    3.3261	  -30.7243	
 -130.0000	-9.7905E-7	-9.7680E-7	-9.7930E-7	-9.7830E-7	-9.8180E-7	-9.864688E-7	-9.843268E-7	-9.866633E-7	-9.881777E-7	-9.867072E-7	  -20.0872	   12.1529	    3.2966	  -30.8067	
 -140.0000	-1.0202E-6	-1.0220E-6	-1.0230E-6	-1.0190E-6	-1.0170E-6	-1.025958E-6	-1.025905E-6	-1.028433E-6	-1.023600E-6	-1.025895E-6	  -19.9626	   12.1060	    3.2514	  -30.9829	
 -150.0000	-1.0540E-6	-1.0560E-6	-1.0520E-6	-1.0530E-6	-1.0550E-6	-1.055855E-6	-1.052468E-6	-1.052046E-6	-1.055916E-6	-1.062988E-6	  -19.9245	   12.1060	    3.2476	  -30.9951	
 -160.0000	-1.0895E-6	-1.0900E-6	-1.0870E-6	-1.0890E-6	-1.0920E-6	-1.098234E-6	-1.096971E-6	-1.096208E-6	-1.098435E-6	-1.101321E-6	  -19.8278	   12.1197	    3.2094	  -31.1091	
 -170.0000	-1.1337E-6	-1.1290E-6	-1.1330E-6	-1.1360E-6	-1.1370E-6	-1.140006E-6	-1.138745E-6	-1.143892E-6	-1.137763E-6	-1.139624E-6	  -19.7591	   12.1199	    3.2090	  -31.1100	
 -180.0000	-1.1585E-6	-1.1600E-6	-1.1620E-6	-1.1560E-6	-1.1560E-6	-1.166032E-6	-1.161750E-6	-1.164844E-6	-1.166067E-6	-1.171468E-6	  -19.6981	   12.1426	    3.1781	  -31.1954	
 -190.0000	-1.1907E-6	-1.1960E-6	-1.1900E-6	-1.1870E-6	-1.1900E-6	-1.193519E-6	-1.193435E-6	-1.191940E-6	-1.193623E-6	-1.195079E-6	  -19.6574	   12.1692	    3.1591	  -31.2394	
 -200.0000	-1.2290E-6	-1.2260E-6	-1.2220E-6	-1.2310E-6	-1.2370E-6	-1.238772E-6	-1.238621E-6	-1.239232E-6	-1.239055E-6	-1.238179E-6	  -19.6345	   12.1306	    3.1414	  -31.3242	
 -210.0000	-1.2845E-6	-1.2790E-6	-1.2870E-6	-1.2880E-6	-1.2840E-6	-1.280751E-6	-1.278650E-6	-1.282607E-6	-1.281565E-6	-1.280181E-6	  -19.6167	   12.0449	    3.1344	  -31.4058	
 -220.0000	-1.3038E-6	-1.3060E-6	-1.3030E-6	-1.3050E-6	-1.3010E-6	-1.302731E-6	-1.306286E-6	-1.305023E-6	-1.300436E-6	-1.299178E-6	  -19.5887	   12.1156	    3.1265	  -31.3837	
 -230.0000	-1.3493E-6	-1.3430E-6	-1.3490E-6	-1.3540E-6	-1.3510E-6	-1.351517E-6	-1.355877E-6	-1.352992E-6	-1.351357E-6	-1.345841E-6	  -19.5709	   12.1089	    3.1297	  -31.3778	
 -240.0000	-1.3815E-6	-1.3780E-6	-1.3790E-6	-1.3820E-6	-1.3870E-6	-1.388947E-6	-1.390438E-6	-1.390105E-6	-1.389123E-6	-1.386123E-6	  -19.5709	   12.1089	    3.1265	  -31.3883	
 -250.0000	-1.4092E-6	-1.4060E-6	-1.4100E-6	-1.4130E-6	-1.4080E-6	-1.410558E-6	-1.406983E-6	-1.412124E-6	-1.411832E-6	-1.411294E-6	  -19.5938	   12.0638	    3.1214	  -31.4359	
 -260.0000	-1.4423E-6	-1.4400E-6	-1.4400E-6	-1.4460E-6	-1.4430E-6	-1.445794E-6	-1.441310E-6	-1.447539E-6	-1.449506E-6	-1.444823E-6	  -19.6243	   12.0637	    3.1202	  -31.4401	
 -270.0000	-1.4645E-6	-1.4670E-6	-1.4670E-6	-1.4620E-6	-1.4620E-6	-1.457453E-6	-1.459172E-6	-1.459494E-6	-1.455967E-6	-1.455178E-6	  -19.6294	   12.0800	    3.1059	  -31.4764	
 -280.0000	-1.4947E-6	-1.4900E-6	-1.4920E-6	-1.4970E-6	-1.5000E-6	-1.502369E-6	-1.500853E-6	-1.503199E-6	-1.501980E-6	-1.503445E-6	  -19.6599	   12.0665	    3.1208	  -31.4361	
 -290.0000	-1.5300E-6	-1.5270E-6	-1.5250E-6	-1.5320E-6	-1.5360E-6	-1.533550E-6	-1.537431E-6	-1.534665E-6	-1.534793E-6	-1.527309E-6	  -19.6981	   12.0362	    3.1066	  -31.5043	
 -300.0000	-1.5523E-6	-1.5620E-6	-1.5560E-6	-1.5500E-6	-1.5410E-6	-1.535198E-6	-1.534598E-6	-1.533035E-6	-1.536135E-6	-1.537022E-6	  -19.7362	   12.0590	    3.1097	  -31.4782	
 -310.0000	-1.5783E-6	-1.5780E-6	-1.5730E-6	-1.5770E-6	-1.5850E-6	-1.592086E-6	-1.590352E-6	-1.589407E-6	-1.596753E-6	-1.591833E-6	  -19.7667	   12.0802	    3.0977	  -31.5038	
 -320.0000	-1.6025E-6	-1.6110E-6	-1.6060E-6	-1.5970E-6	-1.5960E-6	-1.601121E-6	-1.600408E-6	-1.601076E-6	-1.601178E-6	-1.601820E-6	  -19.7871	   12.1216	    3.0879	  -31.5084	
 -330.0000	-1.6365E-6	-1.6360E-6	-1.6360E-6	-1.6360E-6	-1.6380E-6	-1.637418E-6	-1.638887E-6	-1.637160E-6	-1.635418E-6	-1.638208E-6	  -19.8354	   12.1221	    3.0778	  -31.5420	
 -340.0000	-1.6515E-6	-1.6540E-6	-1.6520E-6	-1.6520E-6	-1.6480E-6	-1.639538E-6	-1.645852E-6	-1.640376E-6	-1.635563E-6	-1.636360E-6	  -19.8787	   12.1032	    3.0860	  -31.5273	
 -350.0000	-1.6575E-6	-1.6590E-6	-1.6560E-6	-1.6580E-6	-1.6570E-6	-1.660256E-6	-1.658199E-6	-1.660141E-6	-1.663233E-6	-1.659452E-6	  -19.9219	   12.1684	    3.0996	  -31.4372	
 -360.0000	-1.6818E-6	-1.6840E-6	-1.6850E-6	-1.6800E-6	-1.6780E-6	-1.675689E-6	-1.681016E-6	-1.676259E-6	-1.674186E-6	-1.671293E-6	  -19.9626	   12.1071	    3.1028	  -31.4685	
 -370.0000	-1.6952E-6	-1.7050E-6	-1.6990E-6	-1.6890E-6	-1.6880E-6	-1.686312E-6	-1.689044E-6	-1.686848E-6	-1.685968E-6	-1.683387E-6	  -20.0033	   12.1124	    3.1461	  -31.3209	
 -380.0000	-1.7147E-6	-1.7260E-6	-1.7190E-6	-1.7090E-6	-1.7050E-6	-1.709092E-6	-1.704243E-6	-1.703264E-6	-1.711441E-6	-1.717422E-6	  -20.0389	   12.0759	    3.1499	  -31.3334	
 -390.0000	-1.7613E-6	-1.7620E-6	-1.7560E-6	-1.7690E-6	-1.7580E-6	-1.761159E-6	-1.758178E-6	-1.757676E-6	-1.763064E-6	-1.765718E-6	  -20.0567	   12.1290	    3.2056	  -31.1150	
 -400.0000	-1.7730E-6	-1.7870E-6	-1.7770E-6	-1.7660E-6	-1.7620E-6	-1.756668E-6	-1.756037E-6	-1.753989E-6	-1.759108E-6	-1.757540E-6	  -20.0669	   12.1480	    3.2239	  -31.0426	
 -410.0000	-1.7803E-6	-1.7680E-6	-1.7770E-6	-1.7910E-6	-1.7850E-6	-1.794053E-6	-1.796078E-6	-1.794487E-6	-1.791196E-6	-1.794452E-6	  -20.1051	   12.1775	    3.2280	  -31.0091	
 -420.0000	-1.8047E-6	-1.8020E-6	-1.7970E-6	-1.8060E-6	-1.8140E-6	-1.818531E-6	-1.818755E-6	-1.819100E-6	-1.823255E-6	-1.813015E-6	  -20.1101	   12.1499	    3.2359	  -31.0026	
 -430.0000	-1.8255E-6	-1.8200E-6	-1.8290E-6	-1.8310E-6	-1.8220E-6	-1.819900E-6	-1.817439E-6	-1.818871E-6	-1.823806E-6	-1.819485E-6	  -20.1407	   12.1112	    3.2641	  -30.9389	
 -440.0000	-1.8365E-6	-1.8380E-6	-1.8380E-6	-1.8360E-6	-1.8340E-6	-1.829998E-6	-1.832649E-6	-1.830731E-6	-1.828441E-6	-1.828171E-6	  -20.1636	   12.1335	    3.2732	  -30.8943	
 -450.0000	-1.8462E-6	-1.8490E-6	-1.8510E-6	-1.8460E-6	-1.8390E-6	-1.839013E-6	-1.841065E-6	-1.840887E-6	-1.836797E-6	-1.837304E-6	  -20.1839	   12.1217	    3.2669	  -30.9226	
 -460.0000	-1.8745E-6	-1.8670E-6	-1.8690E-6	-1.8810E-6	-1.8810E-6	-1.875669E-6	-1.880062E-6	-1.876277E-6	-1.874986E-6	-1.871353E-6	  -20.1941	   12.0721	    3.2688	  -30.9506	
 -470.0000	-1.8920E-6	-1.8920E-6	-1.8980E-6	-1.8930E-6	-1.8850E-6	-1.893916E-6	-1.885681E-6	-1.888829E-6	-1.899372E-6	-1.901784E-6	  -20.1992	   12.0770	    3.2359	  -31.0526	
 -480.0000	-1.8920E-6	-1.9040E-6	-1.8950E-6	-1.8850E-6	-1.8840E-6	-1.886029E-6	-1.886207E-6	-1.883886E-6	-1.885668E-6	-1.888356E-6	  -20.1890	   12.0770	    3.2359	  -31.0526	
 -490.0000	-1.9157E-6	-1.9270E-6	-1.9190E-6	-1.9070E-6	-1.9100E-6	-1.905425E-6	-1.911135E-6	-1.907832E-6	-1.904095E-6	-1.898638E-6	  -20.1966	   12.0872	    3.2040	  -31.1488	
 -500.0000	-1.9225E-6	-1.9190E-6	-1.9260E-6	-1.9290E-6	-1.9160E-6	-1.913806E-6	-1.914361E-6	-1.912391E-6	-1.917356E-6	-1.911116E-6	  -20.1839	   12.0704	    3.2015	  -31.1685	
 -510.0000	-1.9343E-6	-1.9250E-6	-1.9320E-6	-1.9390E-6	-1.9410E-6	-1.943349E-6	-1.948231E-6	-1.944613E-6	-1.941501E-6	-1.939051E-6	  -20.1559	   12.0782	    3.1828	  -31.2239	
 -520.0000	-1.9465E-6	-1.9450E-6	-1.9410E-6	-1.9510E-6	-1.9490E-6	-1.961277E-6	-1.956234E-6	-1.967622E-6	-1.960457E-6	-1.960795E-6	  -20.1508	   12.1019	    3.1755	  -31.2315	
 -530.0000	-1.9787E-6	-1.9690E-6	-1.9850E-6	-1.9850E-6	-1.9760E-6	-1.977808E-6	-1.977430E-6	-1.982003E-6	-1.978057E-6	-1.973744E-6	  -20.1381	   12.0824	    3.1626	  -31.2874	
 -540.0000	-1.9850E-6	-1.9790E-6	-1.9870E-6	-1.9890E-6	-1.9850E-6	-1.987641E-6	-1.988517E-6	-1.988807E-6	-1.988126E-6	-1.985115E-6	  -20.1178	   12.0883	    3.1246	  -31.4086	
 -550.0000	-2.0003E-6	-1.9950E-6	-1.9940E-6	-2.0020E-6	-2.0100E-6	-2.008680E-6	-2.011934E-6	-2.007979E-6	-2.007380E-6	-2.007429E-6	  -20.1178	   12.0723	    3.1126	  -31.4596	
 -560.0000	-2.0187E-6	-2.0150E-6	-2.0160E-6	-2.0170E-6	-2.0270E-6	-2.019234E-6	-2.029384E-6	-2.022755E-6	-2.013370E-6	-2.011427E-6	  -20.0949	   12.0715	    3.0882	  -31.5415	
 -570.0000	-2.0255E-6	-2.0290E-6	-2.0270E-6	-2.0220E-6	-2.0240E-6	-2.018921E-6	-2.017492E-6	-2.016770E-6	-2.016502E-6	-2.024922E-6	  -20.0796	   12.0715	    3.0560	  -31.6503	
 -580.0000	-2.0445E-6	-2.0510E-6	-2.0420E-6	-2.0380E-6	-2.0470E-6	-2.073720E-6	-2.063349E-6	-2.073538E-6	-2.077840E-6	-2.080155E-6	  -20.0669	   12.0683	    3.0411	  -31.7029	
 -590.0000	-2.0947E-6	-2.1040E-6	-2.1120E-6	-2.0890E-6	-2.0740E-6	-2.077388E-6	-2.075941E-6	-2.073542E-6	-2.081048E-6	-2.079022E-6	  -20.0491	   12.0105	    3.0398	  -31.7466	
 -600.0000	-2.0872E-6	-2.0960E-6	-2.0920E-6	-2.0810E-6	-2.0800E-6	-2.087459E-6	-2.081048E-6	-2.088656E-6	-2.088576E-6	-2.091554E-6	  -20.0237	   11.9830	    3.0095	  -31.8691	
 -610.0000	-2.0880E-6	-2.0950E-6	-2.0930E-6	-2.0850E-6	-2.0790E-6	-2.093009E-6	-2.083723E-6	-2.094055E-6	-2.098530E-6	-2.095727E-6	  -20.0109	   11.9830	    2.9946	  -31.9202	
 -620.0000	-2.0925E-6	-2.1000E-6	-2.0950E-6	-2.0860E-6	-2.0890E-6	-2.110227E-6	-2.095937E-6	-2.099725E-6	-2.123714E-6	-2.121534E-6	  -20.0008	   11.9966	    2.9532	  -32.0547	
 -630.0000	-2.1338E-6	-2.1380E-6	-2.1370E-6	-2.1330E-6	-2.1270E-6	-2.123157E-6	-2.124902E-6	-2.121677E-6	-2.120000E-6	-2.126050E-6	  -19.9728	   12.0512	    2.9560	  -32.0076	
 -640.0000	-2.1417E-6	-2.1380E-6	-2.1410E-6	-2.1470E-6	-2.1410E-6	-2.151598E-6	-2.145188E-6	-2.152356E-6	-2.150880E-6	-2.157969E-6	  -19.9601	   12.0512	    2.9250	  -32.1163	
 -650.0000	-2.1785E-6	-2.1680E-6	-2.1720E-6	-2.1810E-6	-2.1930E-6	-2.199020E-6	-2.207496E-6	-2.204640E-6	-2.194863E-6	-2.189081E-6	  -19.9524	   11.9848	    2.9339	  -32.1302	
 -660.0000	-2.1925E-6	-2.1890E-6	-2.1990E-6	-2.1940E-6	-2.1880E-6	-2.195468E-6	-2.193974E-6	-2.192341E-6	-2.193596E-6	-2.201961E-6	  -19.9219	   11.9744	    2.9004	  -32.2556	
 -670.0000	-2.2025E-6	-2.2000E-6	-2.2020E-6	-2.2060E-6	-2.2020E-6	-2.199664E-6	-2.199115E-6	-2.198397E-6	-2.201180E-6	-2.199964E-6	  -19.9245	   11.9744	    2.8975	  -32.2657	
 -680.0000	-2.2062E-6	-2.2140E-6	-2.2050E-6	-2.2100E-6	-2.1960E-6	-2.203761E-6	-2.193251E-6	-2.202137E-6	-2.209086E-6	-2.210570E-6	  -19.9194	   11.9995	    2.9042	  -32.2252	
 -690.0000	-2.2213E-6	-2.2180E-6	-2.2350E-6	-2.2190E-6	-2.2130E-6	-2.223678E-6	-2.218672E-6	-2.221448E-6	-2.227312E-6	-2.227279E-6	  -19.9321	   12.0495	    2.9035	  -32.1935	
 -700.0000	-2.2440E-6	-2.2540E-6	-2.2420E-6	-2.2440E-6	-2.2360E-6	-2.226757E-6	-2.229043E-6	-2.227779E-6	-2.225801E-6	-2.224406E-6	  -19.9321	   12.1006	    2.9001	  -32.1712	
 -710.0000	-2.2400E-6	-2.2400E-6	-2.2410E-6	-2.2370E-6	-2.2420E-6	-2.245818E-6	-2.243425E-6	-2.248653E-6	-2.247238E-6	-2.243954E-6	  -19.9245	   12.0509	    2.9108	  -32.1667	
 -720.0000	-2.2773E-6	-2.2780E-6	-2.2800E-6	-2.2790E-6	-2.2720E-6	-2.280077E-6	-2.270102E-6	-2.276273E-6	-2.284274E-6	-2.289657E-6	  -19.9270	   12.0022	    2.9092	  -32.2054	
 -730.0000	-2.2837E-6	-2.2890E-6	-2.2860E-6	-2.2840E-6	-2.2760E-6	-2.276806E-6	-2.274897E-6	-2.279375E-6	-2.275947E-6	-2.277004E-6	  -19.9219	   12.0223	    2.9130	  -32.1783	
 -740.0000	-2.2872E-6	-2.2910E-6	-2.2870E-6	-2.2870E-6	-2.2840E-6	-2.295555E-6	-2.288688E-6	-2.288399E-6	-2.298373E-6	-2.306759E-6	  -19.9423	   12.0464	    2.9216	  -32.1318	
 -750.0000	-2.3113E-6	-2.3220E-6	-2.3190E-6	-2.3070E-6	-2.2970E-6	-2.294461E-6	-2.294041E-6	-2.293161E-6	-2.292193E-6	-2.298451E-6	  -19.9626	   12.0124	    2.9130	  -32.1851	
 -760.0000	-2.3213E-6	-2.3010E-6	-2.3250E-6	-2.3350E-6	-2.3240E-6	-2.315997E-6	-2.317205E-6	-2.314953E-6	-2.314206E-6	-2.317624E-6	  -19.9779	   11.9536	    2.9292	  -32.1681	
 -770.0000	-2.3553E-6	-2.3720E-6	-2.3560E-6	-2.3510E-6	-2.3420E-6	-2.324857E-6	-2.330272E-6	-2.326778E-6	-2.322919E-6	-2.319458E-6	  -19.9779	   12.0024	    2.9273	  -32.1416	
 -780.0000	-2.3485E-6	-2.3380E-6	-2.3440E-6	-2.3490E-6	-2.3630E-6	-2.355622E-6	-2.359911E-6	-2.354838E-6	-2.352862E-6	-2.354875E-6	  -19.9677	   11.9918	    2.9162	  -32.1878	
 -790.0000	-2.3840E-6	-2.3900E-6	-2.3790E-6	-2.3840E-6	-2.3830E-6	-2.373424E-6	-2.379915E-6	-2.376799E-6	-2.370896E-6	-2.366085E-6	  -19.9652	   12.0173	    2.9070	  -32.2030	
 -800.0000	-2.3963E-6	-2.3820E-6	-2.3890E-6	-2.4070E-6	-2.4070E-6	-2.402852E-6	-2.399860E-6	-2.404728E-6	-2.405127E-6	-2.401691E-6	  -19.9677	   12.0163	    2.8887	  -32.2688	
 -810.0000	-2.4020E-6	-2.4030E-6	-2.4050E-6	-2.4060E-6	-2.3940E-6	-2.391190E-6	-2.392688E-6	-2.390034E-6	-2.390905E-6	-2.391134E-6	  -19.9702	   11.9860	    2.9020	  -32.2421	
 -820.0000	-2.4015E-6	-2.3960E-6	-2.3920E-6	-2.4050E-6	-2.4130E-6	-2.416932E-6	-2.406679E-6	-2.420524E-6	-2.423832E-6	-2.416695E-6	  -19.9982	   11.9937	    2.9393	  -32.1053	
 -830.0000	-2.4185E-6	-2.4170E-6	-2.4180E-6	-2.4190E-6	-2.4200E-6	-2.424219E-6	-2.423536E-6	-2.424104E-6	-2.424555E-6	-2.424679E-6	  -19.9957	   11.9937	    2.9209	  -32.1698	
 -840.0000	-2.4365E-6	-2.4280E-6	-2.4370E-6	-2.4360E-6	-2.4450E-6	-2.434421E-6	-2.441224E-6	-2.436454E-6	-2.432159E-6	-2.427848E-6	  -20.0008	   11.9716	    2.9390	  -32.1214	
 -850.0000	-2.4363E-6	-2.4270E-6	-2.4310E-6	-2.4470E-6	-2.4400E-6	-2.455665E-6	-2.452274E-6	-2.459295E-6	-2.457655E-6	-2.453437E-6	  -20.0109	   11.9737	    2.9244	  -32.1712	
 -860.0000	-2.4740E-6	-2.4700E-6	-2.4760E-6	-2.4720E-6	-2.4780E-6	-2.463323E-6	-2.470756E-6	-2.464721E-6	-2.461988E-6	-2.455826E-6	  -20.0364	   11.9751	    2.9307	  -32.1479	
 -870.0000	-2.4508E-6	-2.4550E-6	-2.4430E-6	-2.4500E-6	-2.4550E-6	-2.464321E-6	-2.459736E-6	-2.461571E-6	-2.464556E-6	-2.471421E-6	  -20.0567	   11.9291	    2.9510	  -32.1083	
 -880.0000	-2.4807E-6	-2.4640E-6	-2.4710E-6	-2.4890E-6	-2.4990E-6	-2.491414E-6	-2.495813E-6	-2.495032E-6	-2.489499E-6	-2.485312E-6	  -20.0542	   11.9145	    2.9750	  -32.0346	
 -890.0000	-2.5138E-6	-2.5170E-6	-2.5100E-6	-2.5110E-6	-2.5170E-6	-2.504292E-6	-2.510115E-6	-2.507478E-6	-2.502216E-6	-2.497359E-6	  -20.0389	   11.9362	    2.9886	  -31.9727	
 -900.0000	-2.5200E-6	-2.5190E-6	-2.5200E-6	-2.5160E-6	-2.5250E-6	-2.511470E-6	-2.521917E-6	-2.516549E-6	-2.507823E-6	-2.499592E-6	  -20.0313	   11.9446	    3.0240	  -31.8454	
 -910.0000	-2.4968E-6	-2.4990E-6	-2.4960E-6	-2.5000E-6	-2.4920E-6	-2.501686E-6	-2.496079E-6	-2.497472E-6	-2.501537E-6	-2.511654E-6	  -20.0440	   11.9462	    3.1256	  -31.5026	
 -920.0000	-2.5347E-6	-2.5190E-6	-2.5300E-6	-2.5440E-6	-2.5460E-6	-2.554246E-6	-2.552770E-6	-2.553123E-6	-2.555783E-6	-2.555306E-6	  -20.0465	   11.9430	    3.1932	  -31.2825	
 -930.0000	-2.5690E-6	-2.5860E-6	-2.5650E-6	-2.5640E-6	-2.5610E-6	-2.556833E-6	-2.560778E-6	-2.558267E-6	-2.555948E-6	-2.552340E-6	  -20.0338	   11.9404	    3.2581	  -31.0753	
 -940.0000	-2.5685E-6	-2.5590E-6	-2.5730E-6	-2.5760E-6	-2.5660E-6	-2.575305E-6	-2.567187E-6	-2.577756E-6	-2.580423E-6	-2.575855E-6	  -20.0313	   11.9776	    3.2995	  -30.9182	
 -950.0000	-2.5750E-6	-2.5820E-6	-2.5780E-6	-2.5710E-6	-2.5690E-6	-2.574525E-6	-2.567993E-6	-2.577274E-6	-2.579367E-6	-2.573466E-6	  -20.0338	   11.9746	    3.4064	  -30.5873	
 -960.0000	-2.5693E-6	-2.5770E-6	-2.5670E-6	-2.5690E-6	-2.5640E-6	-2.556754E-6	-2.556800E-6	-2.558695E-6	-2.555640E-6	-2.555881E-6	  -20.0262	   11.9344	    3.4096	  -30.6053	
 -970.0000	-2.5942E-6	-2.5950E-6	-2.5880E-6	-2.5900E-6	-2.6040E-6	-2.626834E-6	-2.615792E-6	-2.624600E-6	-2.633033E-6	-2.633910E-6	  -20.0313	   11.9482	    3.3947	  -30.6415	
 -980.0000	-2.6270E-6	-2.6220E-6	-2.6200E-6	-2.6250E-6	-2.6410E-6	-2.640530E-6	-2.648028E-6	-2.641872E-6	-2.636666E-6	-2.635555E-6	  -20.0262	   11.9451	    3.4503	  -30.4735	
 -990.0000	-2.6340E-6	-2.6360E-6	-2.6420E-6	-2.6290E-6	-2.6290E-6	-2.637933E-6	-2.629770E-6	-2.636003E-6	-2.641037E-6	-2.644923E-6	  -20.0059	   11.9476	    3.4984	  -30.3268	
-1000.0000	-2.6485E-6	-2.6510E-6	-2.6480E-6	-2.6430E-6	-2.6520E-6	-2.641457E-6	-2.644350E-6	-2.642292E-6	-2.641301E-6	-2.637885E-6	  -19.9982	   11.9476	    3.4962	  -30.3335	
