GCD Test
Bias: 5000.000000
CV_34253_037_PSS_HM_XX_DIODEHALFPSTOP_GRConnected
Date/Time: 4/12/2021 4:26:36 PM
Sensor Name: DIODEHALFPSTOP
Type: P
Annealing Status: Not Irradiated
Environment: RT
Tester: Andrew Kent

Time Delay per Ramp Step (s): 0.500

CV Time Delay per Measurement (s) :0.500

AC Voltage (V): 0.500

Current Number of measurements per voltage: 4.000

IV Time Delay per Measurement (s) :0.000


BiasVoltage	LCR_Cp_freq1000.0	LCR_Cp_freq10000.0	LCR_Rp_freq1000.0	LCR_Rp_freq10000.0	Temperature	Air_Temp	Humidity	Dewpoint	
   -5.0000	1.999E-11	1.996E-11	2.184E+9	2.196E+8	   23.1145	   23.3506	    6.7034	  -14.9075	
  -10.0000	1.546E-11	1.541E-11	2.601E+9	2.677E+8	   23.1145	   23.3506	    6.6676	  -14.9721	
  -15.0000	1.339E-11	1.333E-11	2.673E+9	2.970E+8	   23.1120	   23.3475	    6.6145	  -15.0710	
  -20.0000	1.215E-11	1.208E-11	2.705E+9	3.086E+8	   23.1145	   23.3521	    6.5158	  -15.2491	
  -25.0000	1.129E-11	1.122E-11	2.916E+9	3.155E+8	   23.1145	   23.3518	    6.4500	  -15.3715	
  -30.0000	1.067E-11	1.060E-11	2.792E+9	2.907E+8	   23.1145	   23.3492	    6.4171	  -15.4349	
  -35.0000	1.018E-11	1.008E-11	2.913E+9	3.184E+8	   23.1145	   23.3518	    6.3577	  -15.5450	
  -40.0000	9.769E-12	9.681E-12	2.804E+9	3.199E+8	   23.1145	   23.3518	    6.3460	  -15.5672	
  -45.0000	9.440E-12	9.354E-12	2.877E+9	3.211E+8	   23.1171	   23.3492	    6.2865	  -15.6821	
  -50.0000	9.159E-12	9.076E-12	2.711E+9	3.038E+8	   23.1171	   23.3519	    6.2663	  -15.7189	
  -55.0000	8.917E-12	8.830E-12	2.536E+9	3.181E+8	   23.1145	   23.3498	    6.2211	  -15.8073	
  -60.0000	8.705E-12	8.621E-12	2.843E+9	3.256E+8	   23.1171	   23.3498	    6.2290	  -15.7921	
  -65.0000	8.517E-12	8.437E-12	2.853E+9	3.257E+8	   23.1171	   23.3530	    6.1898	  -15.8655	
  -70.0000	8.351E-12	8.273E-12	2.741E+9	3.271E+8	   23.1145	   23.3530	    6.1822	  -15.8802	
  -75.0000	8.206E-12	8.126E-12	2.962E+9	3.273E+8	   23.1171	   23.3493	    6.1483	  -15.9486	
  -80.0000	8.070E-12	7.992E-12	2.841E+9	3.291E+8	   23.1171	   23.3530	    6.1388	  -15.9644	
  -85.0000	7.946E-12	7.871E-12	2.849E+9	3.305E+8	   23.1171	   23.3517	    6.1259	  -15.9907	
  -90.0000	7.836E-12	7.759E-12	2.894E+9	3.299E+8	   23.1171	   23.3545	    6.1145	  -16.0110	
  -95.0000	7.739E-12	7.657E-12	2.893E+9	3.288E+8	   23.1171	   23.3523	    6.1003	  -16.0405	
 -100.0000	7.640E-12	7.563E-12	2.861E+9	3.324E+8	   23.1171	   23.3562	    6.1015	  -16.0352	
 -105.0000	7.553E-12	7.475E-12	2.964E+9	3.309E+8	   23.1171	   23.3534	    6.0939	  -16.0521	
 -110.0000	7.469E-12	7.394E-12	2.964E+9	3.330E+8	   23.1197	   23.3513	    6.0984	  -16.0449	
 -115.0000	7.392E-12	7.324E-12	3.282E+9	3.057E+8	   23.1197	   23.3554	    6.0705	  -16.0967	
 -120.0000	7.321E-12	7.252E-12	3.306E+9	3.059E+8	   23.1171	   23.3581	    6.0708	  -16.0941	
 -125.0000	7.252E-12	7.186E-12	3.172E+9	3.069E+8	   23.1171	   23.3555	    6.0677	  -16.1022	
 -130.0000	7.196E-12	7.127E-12	3.173E+9	3.138E+8	   23.1197	   23.3542	    6.0674	  -16.1038	
 -135.0000	7.129E-12	7.064E-12	3.260E+9	3.060E+8	   23.1197	   23.3529	    6.0541	  -16.1309	
 -140.0000	7.074E-12	7.007E-12	3.130E+9	3.080E+8	   23.1197	   23.3533	    6.0607	  -16.1176	
 -145.0000	7.022E-12	6.954E-12	3.426E+9	3.066E+8	   23.1197	   23.3529	    6.0689	  -16.1016	
 -150.0000	6.969E-12	6.902E-12	3.139E+9	2.929E+8	   23.1197	   23.3561	    6.0610	  -16.1149	
 -155.0000	6.926E-12	6.855E-12	3.472E+9	3.067E+8	   23.1197	   23.3534	    6.0629	  -16.1131	
 -160.0000	6.878E-12	6.808E-12	3.384E+9	3.081E+8	   23.1223	   23.3556	    6.0639	  -16.1096	
 -165.0000	6.832E-12	6.763E-12	3.168E+9	2.939E+8	   23.1197	   23.3597	    6.0655	  -16.1036	
 -170.0000	6.789E-12	6.723E-12	3.084E+9	3.073E+8	   23.1223	   23.3584	    6.0648	  -16.1057	
 -175.0000	6.750E-12	6.683E-12	3.170E+9	3.071E+8	   23.1223	   23.3536	    6.0550	  -16.1286	
 -180.0000	6.712E-12	6.644E-12	3.286E+9	3.079E+8	   23.1223	   23.3567	    6.0629	  -16.1107	
 -185.0000	6.673E-12	6.607E-12	3.272E+9	3.087E+8	   23.1223	   23.3529	    6.0528	  -16.1334	
 -190.0000	6.640E-12	6.570E-12	3.351E+9	3.082E+8	   23.1223	   23.3540	    6.0525	  -16.1333	
 -195.0000	6.601E-12	6.534E-12	3.446E+9	3.089E+8	   23.1248	   23.3568	    6.0417	  -16.1525	
 -200.0000	6.569E-12	6.500E-12	3.061E+9	3.090E+8	   23.1223	   23.3524	    6.0506	  -16.1382	
 -205.0000	6.535E-12	6.466E-12	3.386E+9	3.078E+8	   23.1223	   23.3530	    6.0440	  -16.1509	
 -210.0000	6.501E-12	6.432E-12	3.295E+9	3.084E+8	   23.1223	   23.3517	    6.0414	  -16.1568	
 -215.0000	6.467E-12	6.399E-12	3.224E+9	3.098E+8	   23.1223	   23.3539	    6.0515	  -16.1352	
 -220.0000	6.435E-12	6.367E-12	3.247E+9	3.092E+8	   23.1248	   23.3546	    6.0430	  -16.1516	
 -225.0000	6.407E-12	6.336E-12	3.541E+9	3.088E+8	   23.1248	   23.3590	    6.0411	  -16.1521	
 -230.0000	6.374E-12	6.307E-12	3.108E+9	3.083E+8	   23.1248	   23.3589	    6.0386	  -16.1572	
 -235.0000	6.347E-12	6.278E-12	3.308E+9	2.942E+8	   23.1248	   23.3556	    6.0383	  -16.1603	
 -240.0000	6.320E-12	6.255E-12	3.394E+9	3.083E+8	   23.1248	   23.3537	    6.0538	  -16.1310	
 -245.0000	6.305E-12	6.235E-12	3.147E+9	3.084E+8	   23.1248	   23.3591	    6.0304	  -16.1734	
 -250.0000	6.292E-12	6.221E-12	2.974E+9	3.112E+8	   23.1248	   23.3570	    6.0348	  -16.1749	
 -255.0000	6.278E-12	6.212E-12	3.263E+9	3.092E+8	   23.1248	   23.3568	    6.0405	  -16.1550	
 -260.0000	6.271E-12	6.205E-12	3.165E+9	3.112E+8	   23.1248	   23.3596	    6.0380	  -16.1580	
 -265.0000	6.267E-12	6.200E-12	3.268E+9	3.081E+8	   23.1248	   23.3563	    6.0196	  -16.1967	
 -270.0000	6.262E-12	6.196E-12	3.392E+9	3.081E+8	   23.1274	   23.3562	    6.0342	  -16.1680	
 -275.0000	6.262E-12	6.194E-12	3.192E+9	3.094E+8	   23.1274	   23.3553	    6.0329	  -16.1711	
 -280.0000	6.256E-12	6.191E-12	3.201E+9	3.095E+8	   23.1274	   23.3587	    6.0348	  -16.1649	
 -285.0000	6.260E-12	6.189E-12	3.170E+9	3.078E+8	   23.1274	   23.3574	    6.0370	  -16.1615	
 -290.0000	6.260E-12	6.188E-12	3.312E+9	3.099E+8	   23.1274	   23.3604	    6.0351	  -16.1630	
 -295.0000	6.255E-12	6.185E-12	3.000E+9	2.952E+8	   23.1274	   23.3565	    6.0231	  -16.1897	
 -300.0000	6.253E-12	6.185E-12	3.114E+9	3.085E+8	   23.1248	   23.3567	    6.0281	  -16.1795	
 -305.0000	6.254E-12	6.185E-12	3.112E+9	3.095E+8	   23.1274	   23.3580	    6.0190	  -16.1968	
 -310.0000	6.254E-12	6.184E-12	3.252E+9	3.088E+8	   23.1248	   23.3627	    6.0247	  -16.1821	
 -315.0000	6.252E-12	6.183E-12	3.535E+9	3.086E+8	   23.1274	   23.3582	    6.0133	  -16.2079	
 -320.0000	6.252E-12	6.182E-12	3.340E+9	3.088E+8	   23.1274	   23.3583	    6.0149	  -16.2047	
 -325.0000	6.249E-12	6.181E-12	3.442E+9	3.081E+8	   23.1274	   23.3608	    6.0076	  -16.2174	
 -330.0000	6.251E-12	6.184E-12	3.559E+9	3.171E+8	   23.1274	   23.3595	    6.0231	  -16.1875	
 -335.0000	6.250E-12	6.180E-12	3.243E+9	3.081E+8	   23.1300	   23.3615	    6.0215	  -16.1893	
 -340.0000	6.248E-12	6.179E-12	3.244E+9	3.103E+8	   23.1274	   23.3567	    5.9991	  -16.2373	
 -345.0000	6.246E-12	6.179E-12	3.399E+9	3.072E+8	   23.1300	   23.3605	    5.9984	  -16.2358	
 -350.0000	6.248E-12	6.179E-12	3.282E+9	3.087E+8	   23.1300	   23.3586	    6.0079	  -16.2183	
 -355.0000	6.247E-12	6.181E-12	3.406E+9	3.179E+8	   23.1300	   23.3586	    6.0022	  -16.2297	
 -360.0000	6.246E-12	6.178E-12	3.314E+9	3.100E+8	   23.1300	   23.3576	    6.0114	  -16.2122	
 -365.0000	6.249E-12	6.177E-12	3.192E+9	3.091E+8	   23.1300	   23.3608	    5.9883	  -16.2559	
 -370.0000	6.244E-12	6.177E-12	3.434E+9	3.102E+8	   23.1326	   23.3595	    5.9946	  -16.2442	
 -375.0000	6.245E-12	6.176E-12	3.180E+9	3.109E+8	   23.1300	   23.3595	    6.0013	  -16.2309	
 -380.0000	6.242E-12	6.176E-12	3.283E+9	3.083E+8	   23.1326	   23.3600	    5.9911	  -16.2507	
 -385.0000	6.240E-12	6.176E-12	3.501E+9	3.087E+8	   23.1326	   23.3620	    5.9851	  -16.2612	
 -390.0000	6.247E-12	6.176E-12	3.218E+9	3.097E+8	   23.1326	   23.3624	    5.9880	  -16.2553	
 -395.0000	6.245E-12	6.175E-12	3.181E+9	3.086E+8	   23.1326	   23.3599	    5.9886	  -16.2558	
 -400.0000	6.243E-12	6.175E-12	3.235E+9	3.099E+8	   23.1326	   23.3612	    5.9662	  -16.2997	
 -410.0000	6.239E-12	6.175E-12	3.244E+9	3.096E+8	   23.1326	   23.3634	    5.9731	  -16.2842	
 -420.0000	6.240E-12	6.174E-12	3.158E+9	3.096E+8	   23.1326	   23.3624	    5.9779	  -16.2755	
 -430.0000	6.239E-12	6.173E-12	3.283E+9	3.078E+8	   23.1326	   23.3645	    5.9681	  -16.2936	
 -440.0000	6.242E-12	6.173E-12	3.074E+9	3.089E+8	   23.1326	   23.3615	    5.9756	  -16.2806	
 -450.0000	6.243E-12	6.173E-12	3.337E+9	3.086E+8	   23.1326	   23.3611	    5.9652	  -16.3017	
 -460.0000	6.241E-12	6.172E-12	3.430E+9	3.086E+8	   23.1351	   23.3623	    5.9643	  -16.3028	
 -470.0000	6.239E-12	6.172E-12	3.349E+9	3.086E+8	   23.1326	   23.3590	    5.9728	  -16.2881	
 -480.0000	6.240E-12	6.170E-12	3.271E+9	2.948E+8	   23.1351	   23.3659	    5.9652	  -16.2983	
 -490.0000	6.239E-12	6.171E-12	3.367E+9	3.091E+8	   23.1351	   23.3661	    5.9658	  -16.2969	
 -500.0000	6.242E-12	6.171E-12	3.269E+9	3.088E+8	   23.1326	   23.3625	    5.9630	  -16.3052	
 -510.0000	6.239E-12	6.171E-12	3.136E+9	3.079E+8	   23.1351	   23.3646	    5.9646	  -16.3005	
 -520.0000	6.239E-12	6.170E-12	3.243E+9	3.091E+8	   23.1377	   23.3669	    5.9624	  -16.3033	
 -530.0000	6.240E-12	6.170E-12	3.488E+9	3.109E+8	   23.1351	   23.3706	    5.9500	  -16.3253	
 -540.0000	6.238E-12	6.170E-12	3.423E+9	3.105E+8	   23.1351	   23.3715	    5.9532	  -16.3183	
 -550.0000	6.236E-12	6.170E-12	3.189E+9	3.097E+8	   23.1351	   23.3663	    5.9500	  -16.3284	
 -560.0000	6.237E-12	6.169E-12	3.542E+9	3.073E+8	   23.1377	   23.3675	    5.9431	  -16.3415	
 -570.0000	6.238E-12	6.169E-12	3.313E+9	3.091E+8	   23.1377	   23.3699	    5.9412	  -16.3436	
 -580.0000	6.236E-12	6.169E-12	3.404E+9	3.081E+8	   23.1377	   23.3726	    5.9497	  -16.3245	
 -590.0000	6.234E-12	6.169E-12	3.191E+9	3.086E+8	   23.1351	   23.3713	    5.9431	  -16.3388	
 -600.0000	6.238E-12	6.169E-12	3.477E+9	3.083E+8	   23.1377	   23.3745	    5.9545	  -16.3136	
