GCD Test
Bias: 5000.000000
IV_36697_036_PSS_HM_XX_DIODEHALF
Date/Time: 12/1/2021 3:34:45 PM
Sensor Name: DIODEHALF
Type: P
Annealing Status: Irradiated and Annealed for 80 min at 60C
Environment: -20C
Tester: Andrew Kent

Time Delay per Ramp Step (s): 1.000

CV Time Delay per Measurement (s) :0.500

AC Voltage (V): 0.500

Current Number of measurements per voltage: 4.000

IV Time Delay per Measurement (s) :0.000


BiasVoltage	Total Current_Avg	Total Current_0	Total Current_1	Total Current_2	Total Current_3	Bias Current_Avg	Bias Current_0	Bias Current_1	Bias Current_2	Bias Current_3	Temperature	Air_Temp	Humidity	Dewpoint	
  -10.0000	-3.3390E-7	-3.3440E-7	-3.3430E-7	-3.3370E-7	-3.3320E-7	-3.322374E-7	-3.326571E-7	-3.323317E-7	-3.320312E-7	-3.319295E-7	  -19.9957	   13.0662	    2.1404	  -34.6174	
  -20.0000	-4.3658E-7	-4.3670E-7	-4.3720E-7	-4.3660E-7	-4.3580E-7	-4.365113E-7	-4.353529E-7	-4.364495E-7	-4.371508E-7	-4.370921E-7	  -20.0033	   13.0662	    2.1429	  -34.6055	
  -30.0000	-5.2038E-7	-5.1920E-7	-5.2230E-7	-5.2070E-7	-5.1930E-7	-5.201855E-7	-5.208033E-7	-5.205210E-7	-5.198965E-7	-5.195212E-7	  -19.9982	   13.0923	    2.1474	  -34.5677	
  -40.0000	-5.8937E-7	-5.9040E-7	-5.8900E-7	-5.8850E-7	-5.8960E-7	-5.904201E-7	-5.908381E-7	-5.906734E-7	-5.898988E-7	-5.902700E-7	  -20.0033	   13.0974	    2.1480	  -34.5613	
  -50.0000	-6.4793E-7	-6.4660E-7	-6.4700E-7	-6.4830E-7	-6.4980E-7	-6.515929E-7	-6.496066E-7	-6.493825E-7	-6.524785E-7	-6.549042E-7	  -19.9957	   13.0771	    2.1448	  -34.5895	
  -60.0000	-7.0153E-7	-7.0460E-7	-7.0090E-7	-6.9940E-7	-7.0120E-7	-6.997249E-7	-7.006693E-7	-6.996999E-7	-6.988592E-7	-6.996714E-7	  -19.9931	   13.0851	    2.1306	  -34.6512	
  -70.0000	-7.4865E-7	-7.4910E-7	-7.4820E-7	-7.4860E-7	-7.4870E-7	-7.497310E-7	-7.481023E-7	-7.483804E-7	-7.496967E-7	-7.527447E-7	  -19.9931	   13.1012	    2.1382	  -34.6048	
  -80.0000	-7.9595E-7	-7.9800E-7	-7.9870E-7	-7.9450E-7	-7.9260E-7	-7.938652E-7	-7.928344E-7	-7.924774E-7	-7.929693E-7	-7.971796E-7	  -19.9931	   13.0734	    2.1256	  -34.6828	
  -90.0000	-8.3697E-7	-8.3880E-7	-8.3630E-7	-8.3770E-7	-8.3510E-7	-8.332122E-7	-8.338781E-7	-8.326955E-7	-8.332842E-7	-8.329911E-7	  -19.9931	   13.0734	    2.1319	  -34.6529	
 -100.0000	-8.6923E-7	-8.7130E-7	-8.6990E-7	-8.6880E-7	-8.6690E-7	-8.689665E-7	-8.669754E-7	-8.683983E-7	-8.697156E-7	-8.707767E-7	  -20.0084	   13.0489	    2.1237	  -34.7079	
 -110.0000	-9.0740E-7	-9.0360E-7	-9.0690E-7	-9.1000E-7	-9.0910E-7	-9.052778E-7	-9.074561E-7	-9.055114E-7	-9.041954E-7	-9.039484E-7	  -20.0109	   13.0274	    2.1233	  -34.7234	
 -120.0000	-9.3990E-7	-9.3960E-7	-9.3890E-7	-9.3960E-7	-9.4150E-7	-9.391238E-7	-9.412923E-7	-9.398426E-7	-9.380751E-7	-9.372851E-7	  -20.0109	   13.0919	    2.1252	  -34.6721	
 -130.0000	-9.6697E-7	-9.6630E-7	-9.6750E-7	-9.6600E-7	-9.6810E-7	-9.703939E-7	-9.700633E-7	-9.705127E-7	-9.706617E-7	-9.703380E-7	  -20.0059	   13.0919	    2.1230	  -34.6826	
 -140.0000	-1.0058E-6	-1.0050E-6	-1.0060E-6	-1.0080E-6	-1.0040E-6	-1.000974E-6	-1.002693E-6	-1.001708E-6	-1.000097E-6	-9.993976E-7	  -20.0059	   13.0083	    2.1246	  -34.7301	
 -150.0000	-1.0400E-6	-1.0410E-6	-1.0390E-6	-1.0380E-6	-1.0420E-6	-1.043805E-6	-1.044490E-6	-1.045359E-6	-1.043340E-6	-1.042032E-6	  -19.9982	   12.9776	    2.1230	  -34.7577	
 -160.0000	-1.0783E-6	-1.0790E-6	-1.0820E-6	-1.0780E-6	-1.0740E-6	-1.072349E-6	-1.072464E-6	-1.072129E-6	-1.072773E-6	-1.072029E-6	  -20.0033	   12.9967	    2.1309	  -34.7078	
 -170.0000	-1.1058E-6	-1.1080E-6	-1.1060E-6	-1.1060E-6	-1.1030E-6	-1.103441E-6	-1.106129E-6	-1.104026E-6	-1.102059E-6	-1.101549E-6	  -20.0084	   13.0357	    2.1268	  -34.7016	
 -180.0000	-1.1330E-6	-1.1330E-6	-1.1350E-6	-1.1330E-6	-1.1310E-6	-1.131550E-6	-1.131578E-6	-1.130968E-6	-1.131168E-6	-1.132484E-6	  -20.0033	   13.0480	    2.1328	  -34.6651	
 -190.0000	-1.1630E-6	-1.1610E-6	-1.1630E-6	-1.1640E-6	-1.1640E-6	-1.165249E-6	-1.165075E-6	-1.164037E-6	-1.166908E-6	-1.164974E-6	  -20.0008	   13.0258	    2.1325	  -34.6812	
 -200.0000	-1.1890E-6	-1.1920E-6	-1.1910E-6	-1.1870E-6	-1.1860E-6	-1.191212E-6	-1.186484E-6	-1.189379E-6	-1.193464E-6	-1.195523E-6	  -19.9982	   12.9846	    2.1281	  -34.7292	
 -210.0000	-1.2230E-6	-1.2250E-6	-1.2270E-6	-1.2220E-6	-1.2180E-6	-1.218084E-6	-1.218322E-6	-1.215533E-6	-1.218225E-6	-1.220254E-6	  -20.0033	   12.9846	    2.1464	  -34.6429	
 -220.0000	-1.2420E-6	-1.2440E-6	-1.2400E-6	-1.2410E-6	-1.2430E-6	-1.240057E-6	-1.239896E-6	-1.241372E-6	-1.239816E-6	-1.239143E-6	  -20.0059	   13.0155	    2.1464	  -34.6226	
 -230.0000	-1.2655E-6	-1.2720E-6	-1.2680E-6	-1.2640E-6	-1.2580E-6	-1.256919E-6	-1.254401E-6	-1.255854E-6	-1.258205E-6	-1.259218E-6	  -20.0008	   12.9467	    2.1616	  -34.5969	
 -240.0000	-1.2818E-6	-1.2840E-6	-1.2820E-6	-1.2810E-6	-1.2800E-6	-1.281667E-6	-1.280005E-6	-1.282931E-6	-1.282473E-6	-1.281258E-6	  -20.0008	   12.9467	    2.1667	  -34.5734	
 -250.0000	-1.3158E-6	-1.3140E-6	-1.3210E-6	-1.3160E-6	-1.3120E-6	-1.312267E-6	-1.310714E-6	-1.310165E-6	-1.311985E-6	-1.316204E-6	  -20.0084	   12.9269	    2.1825	  -34.5133	
 -260.0000	-1.3357E-6	-1.3380E-6	-1.3390E-6	-1.3350E-6	-1.3310E-6	-1.329791E-6	-1.328817E-6	-1.329736E-6	-1.329985E-6	-1.330624E-6	  -20.0008	   12.9584	    2.1844	  -34.4838	
 -270.0000	-1.3493E-6	-1.3480E-6	-1.3490E-6	-1.3490E-6	-1.3510E-6	-1.352575E-6	-1.351175E-6	-1.351929E-6	-1.353569E-6	-1.353627E-6	  -19.9957	   12.9322	    2.1781	  -34.5302	
 -280.0000	-1.3722E-6	-1.3640E-6	-1.3740E-6	-1.3750E-6	-1.3760E-6	-1.373495E-6	-1.373801E-6	-1.373647E-6	-1.374167E-6	-1.372364E-6	  -19.9931	   12.9440	    2.1825	  -34.5020	
 -290.0000	-1.4087E-6	-1.4080E-6	-1.4090E-6	-1.4080E-6	-1.4100E-6	-1.418170E-6	-1.412158E-6	-1.417770E-6	-1.421924E-6	-1.420830E-6	  -19.9906	   12.9440	    2.1796	  -34.5152	
 -300.0000	-1.4300E-6	-1.4320E-6	-1.4300E-6	-1.4280E-6	-1.4300E-6	-1.429503E-6	-1.430248E-6	-1.428812E-6	-1.430426E-6	-1.428525E-6	  -19.9906	   12.9184	    2.1720	  -34.5671	
 -310.0000	-1.4620E-6	-1.4590E-6	-1.4610E-6	-1.4620E-6	-1.4660E-6	-1.460353E-6	-1.463350E-6	-1.460068E-6	-1.458659E-6	-1.459333E-6	  -19.9880	   12.9267	    2.1705	  -34.5690	
 -320.0000	-1.4777E-6	-1.4730E-6	-1.4820E-6	-1.4800E-6	-1.4760E-6	-1.475262E-6	-1.474373E-6	-1.474633E-6	-1.474719E-6	-1.477324E-6	  -19.9931	   12.9116	    2.1686	  -34.5878	
 -330.0000	-1.5015E-6	-1.5010E-6	-1.5030E-6	-1.5010E-6	-1.5010E-6	-1.497658E-6	-1.500218E-6	-1.499703E-6	-1.497109E-6	-1.493600E-6	  -19.9880	   12.8995	    2.1619	  -34.6265	
 -340.0000	-1.5168E-6	-1.5110E-6	-1.5100E-6	-1.5220E-6	-1.5240E-6	-1.516522E-6	-1.520164E-6	-1.517090E-6	-1.515191E-6	-1.513642E-6	  -19.9855	   12.9027	    2.1670	  -34.6009	
 -350.0000	-1.5208E-6	-1.5220E-6	-1.5210E-6	-1.5200E-6	-1.5200E-6	-1.515707E-6	-1.516963E-6	-1.514535E-6	-1.515013E-6	-1.516319E-6	  -19.9880	   12.8983	    2.1613	  -34.6303	
 -360.0000	-1.5362E-6	-1.5380E-6	-1.5380E-6	-1.5350E-6	-1.5340E-6	-1.533166E-6	-1.533536E-6	-1.532694E-6	-1.532333E-6	-1.534102E-6	  -19.9906	   12.9033	    2.1610	  -34.6285	
 -370.0000	-1.5608E-6	-1.5580E-6	-1.5590E-6	-1.5630E-6	-1.5630E-6	-1.560569E-6	-1.560385E-6	-1.559599E-6	-1.560392E-6	-1.561900E-6	  -19.9906	   12.8981	    2.1695	  -34.5923	
 -380.0000	-1.5832E-6	-1.5860E-6	-1.5830E-6	-1.5810E-6	-1.5830E-6	-1.578911E-6	-1.580227E-6	-1.578511E-6	-1.577373E-6	-1.579531E-6	  -19.9957	   12.8864	    2.1613	  -34.6381	
 -390.0000	-1.5932E-6	-1.5920E-6	-1.5930E-6	-1.5950E-6	-1.5930E-6	-1.591067E-6	-1.592404E-6	-1.591241E-6	-1.590151E-6	-1.590474E-6	  -19.9982	   12.8280	    2.1686	  -34.6428	
 -400.0000	-1.6195E-6	-1.6090E-6	-1.6140E-6	-1.6220E-6	-1.6330E-6	-1.634197E-6	-1.637992E-6	-1.636250E-6	-1.632942E-6	-1.629603E-6	  -19.9931	   12.7904	    2.1607	  -34.7043	
 -410.0000	-1.6415E-6	-1.6390E-6	-1.6370E-6	-1.6470E-6	-1.6430E-6	-1.637741E-6	-1.640593E-6	-1.639342E-6	-1.636339E-6	-1.634690E-6	  -19.9982	   12.8087	    2.1603	  -34.6937	
 -420.0000	-1.6575E-6	-1.6580E-6	-1.6560E-6	-1.6580E-6	-1.6580E-6	-1.653294E-6	-1.655485E-6	-1.654503E-6	-1.652611E-6	-1.650577E-6	  -20.0084	   12.8087	    2.1667	  -34.6643	
 -430.0000	-1.6738E-6	-1.6670E-6	-1.6690E-6	-1.6790E-6	-1.6800E-6	-1.678323E-6	-1.680790E-6	-1.679718E-6	-1.677716E-6	-1.675067E-6	  -19.9982	   12.8052	    2.1733	  -34.6358	
 -440.0000	-1.6903E-6	-1.6910E-6	-1.6900E-6	-1.6890E-6	-1.6910E-6	-1.685325E-6	-1.687690E-6	-1.685830E-6	-1.684098E-6	-1.683683E-6	  -20.0008	   12.8284	    2.1629	  -34.6689	
 -450.0000	-1.7015E-6	-1.7010E-6	-1.7000E-6	-1.7020E-6	-1.7030E-6	-1.705742E-6	-1.708668E-6	-1.710320E-6	-1.702934E-6	-1.701044E-6	  -20.0033	   12.8380	    2.1543	  -34.7024	
 -460.0000	-1.7115E-6	-1.7150E-6	-1.7130E-6	-1.7120E-6	-1.7060E-6	-1.707801E-6	-1.703442E-6	-1.704606E-6	-1.711583E-6	-1.711572E-6	  -19.9982	   12.8380	    2.1645	  -34.6553	
 -470.0000	-1.7400E-6	-1.7360E-6	-1.7390E-6	-1.7390E-6	-1.7460E-6	-1.745994E-6	-1.748459E-6	-1.748078E-6	-1.745284E-6	-1.742155E-6	  -19.9982	   12.8391	    2.1490	  -34.7268	
 -480.0000	-1.7485E-6	-1.7460E-6	-1.7450E-6	-1.7540E-6	-1.7490E-6	-1.750310E-6	-1.745736E-6	-1.747184E-6	-1.750885E-6	-1.757437E-6	  -19.9982	   12.8271	    2.1562	  -34.7007	
 -490.0000	-1.7732E-6	-1.7710E-6	-1.7720E-6	-1.7770E-6	-1.7730E-6	-1.775481E-6	-1.775176E-6	-1.773298E-6	-1.773693E-6	-1.779756E-6	  -20.0059	   12.7828	    2.1483	  -34.7667	
 -500.0000	-1.7860E-6	-1.7880E-6	-1.7850E-6	-1.7840E-6	-1.7870E-6	-1.792978E-6	-1.794042E-6	-1.793815E-6	-1.793467E-6	-1.790588E-6	  -20.0059	   12.7828	    2.1477	  -34.7697	
 -510.0000	-1.8010E-6	-1.8050E-6	-1.8010E-6	-1.7980E-6	-1.8000E-6	-1.800798E-6	-1.799459E-6	-1.801285E-6	-1.800981E-6	-1.801468E-6	  -20.0008	   12.7832	    2.1616	  -34.7046	
 -520.0000	-1.8165E-6	-1.8150E-6	-1.8140E-6	-1.8170E-6	-1.8200E-6	-1.820483E-6	-1.819251E-6	-1.820836E-6	-1.821034E-6	-1.820810E-6	  -20.0059	   12.7844	    2.1610	  -34.7067	
 -530.0000	-1.8345E-6	-1.8400E-6	-1.8350E-6	-1.8320E-6	-1.8310E-6	-1.829729E-6	-1.827593E-6	-1.827673E-6	-1.830010E-6	-1.833640E-6	  -20.0084	   12.8491	    2.1682	  -34.6304	
 -540.0000	-1.8485E-6	-1.8450E-6	-1.8470E-6	-1.8490E-6	-1.8530E-6	-1.846231E-6	-1.850656E-6	-1.847143E-6	-1.844492E-6	-1.842634E-6	  -20.0084	   12.8491	    2.1632	  -34.6538	
 -550.0000	-1.8535E-6	-1.8540E-6	-1.8530E-6	-1.8520E-6	-1.8550E-6	-1.856589E-6	-1.857845E-6	-1.857824E-6	-1.856277E-6	-1.854410E-6	  -20.0135	   12.8224	    2.1714	  -34.6333	
 -560.0000	-1.8707E-6	-1.8670E-6	-1.8660E-6	-1.8720E-6	-1.8780E-6	-1.880069E-6	-1.879531E-6	-1.878813E-6	-1.880640E-6	-1.881294E-6	  -20.0109	   12.8088	    2.1616	  -34.6877	
 -570.0000	-1.8808E-6	-1.8860E-6	-1.8830E-6	-1.8780E-6	-1.8760E-6	-1.875061E-6	-1.873835E-6	-1.873841E-6	-1.876634E-6	-1.875933E-6	  -20.0135	   12.7571	    2.1790	  -34.6412	
 -580.0000	-1.8827E-6	-1.8880E-6	-1.8840E-6	-1.8790E-6	-1.8800E-6	-1.885942E-6	-1.880718E-6	-1.886940E-6	-1.888854E-6	-1.887257E-6	  -20.0237	   12.7571	    2.1692	  -34.6865	
 -590.0000	-1.8970E-6	-1.8980E-6	-1.8950E-6	-1.8960E-6	-1.8990E-6	-1.898495E-6	-1.899722E-6	-1.897828E-6	-1.898333E-6	-1.898098E-6	  -20.0237	   12.7385	    2.1629	  -34.7281	
 -600.0000	-1.9160E-6	-1.9100E-6	-1.9200E-6	-1.9180E-6	-1.9160E-6	-1.920019E-6	-1.920828E-6	-1.923367E-6	-1.920509E-6	-1.915373E-6	  -20.0135	   12.7164	    2.1591	  -34.7603	
 -610.0000	-1.9273E-6	-1.9330E-6	-1.9310E-6	-1.9270E-6	-1.9180E-6	-1.922877E-6	-1.919308E-6	-1.925172E-6	-1.925010E-6	-1.922017E-6	  -20.0109	   12.7139	    2.1569	  -34.7722	
 -620.0000	-1.9375E-6	-1.9300E-6	-1.9380E-6	-1.9430E-6	-1.9390E-6	-1.934381E-6	-1.936687E-6	-1.935110E-6	-1.933620E-6	-1.932106E-6	  -20.0109	   12.6859	    2.1562	  -34.7936	
 -630.0000	-1.9430E-6	-1.9480E-6	-1.9450E-6	-1.9400E-6	-1.9390E-6	-1.945271E-6	-1.939713E-6	-1.943290E-6	-1.948775E-6	-1.949306E-6	  -20.0135	   12.6999	    2.1426	  -34.8479	
 -640.0000	-1.9495E-6	-1.9500E-6	-1.9460E-6	-1.9480E-6	-1.9540E-6	-1.954480E-6	-1.953491E-6	-1.954606E-6	-1.955557E-6	-1.954266E-6	  -20.0084	   12.6983	    2.1518	  -34.8061	
 -650.0000	-1.9723E-6	-1.9780E-6	-1.9700E-6	-1.9700E-6	-1.9710E-6	-1.966615E-6	-1.971000E-6	-1.968130E-6	-1.965277E-6	-1.962055E-6	  -19.9982	   12.7493	    2.1534	  -34.7652	
 -660.0000	-1.9752E-6	-1.9730E-6	-1.9740E-6	-1.9730E-6	-1.9810E-6	-1.989799E-6	-1.985862E-6	-1.988171E-6	-1.991398E-6	-1.993764E-6	  -20.0109	   12.7342	    2.1591	  -34.7486	
 -670.0000	-2.0052E-6	-2.0110E-6	-2.0040E-6	-2.0000E-6	-2.0060E-6	-2.008904E-6	-2.009306E-6	-2.010673E-6	-2.010318E-6	-2.005319E-6	  -20.0033	   12.6689	    2.1546	  -34.8122	
 -680.0000	-2.0137E-6	-2.0130E-6	-2.0150E-6	-2.0120E-6	-2.0150E-6	-2.031444E-6	-2.020882E-6	-2.026033E-6	-2.040322E-6	-2.038538E-6	  -20.0008	   12.7089	    2.1575	  -34.7726	
 -690.0000	-2.0232E-6	-2.0280E-6	-2.0230E-6	-2.0190E-6	-2.0230E-6	-2.019236E-6	-2.023369E-6	-2.021142E-6	-2.017789E-6	-2.014645E-6	  -20.0033	   12.7340	    2.1528	  -34.7782	
 -700.0000	-2.0357E-6	-2.0380E-6	-2.0360E-6	-2.0350E-6	-2.0340E-6	-2.037628E-6	-2.036353E-6	-2.039609E-6	-2.038172E-6	-2.036377E-6	  -19.9957	   12.6981	    2.1531	  -34.8003	
 -710.0000	-2.0332E-6	-2.0370E-6	-2.0310E-6	-2.0310E-6	-2.0340E-6	-2.040306E-6	-2.039620E-6	-2.041689E-6	-2.040524E-6	-2.039392E-6	  -20.0033	   12.7168	    2.1528	  -34.7895	
 -720.0000	-2.0600E-6	-2.0580E-6	-2.0640E-6	-2.0600E-6	-2.0580E-6	-2.054142E-6	-2.056442E-6	-2.056318E-6	-2.053953E-6	-2.049857E-6	  -20.0033	   12.7309	    2.1603	  -34.7449	
 -730.0000	-2.0668E-6	-2.0730E-6	-2.0650E-6	-2.0640E-6	-2.0650E-6	-2.070872E-6	-2.067490E-6	-2.069750E-6	-2.073123E-6	-2.073126E-6	  -19.9982	   12.7207	    2.1534	  -34.7840	
 -740.0000	-2.0720E-6	-2.0750E-6	-2.0700E-6	-2.0700E-6	-2.0730E-6	-2.070965E-6	-2.077149E-6	-2.074348E-6	-2.069168E-6	-2.063197E-6	  -19.9931	   12.6965	    2.1505	  -34.8132	
 -750.0000	-2.0805E-6	-2.0780E-6	-2.0850E-6	-2.0810E-6	-2.0780E-6	-2.082453E-6	-2.079836E-6	-2.082519E-6	-2.084726E-6	-2.082730E-6	  -19.9931	   12.7095	    2.1499	  -34.8076	
 -760.0000	-2.1035E-6	-2.1030E-6	-2.1090E-6	-2.1040E-6	-2.0980E-6	-2.089106E-6	-2.092859E-6	-2.089549E-6	-2.087351E-6	-2.086664E-6	  -19.9982	   12.7045	    2.1316	  -34.8968	
 -770.0000	-2.1172E-6	-2.1270E-6	-2.1180E-6	-2.1140E-6	-2.1100E-6	-2.108874E-6	-2.109000E-6	-2.107492E-6	-2.107191E-6	-2.111811E-6	  -19.9982	   12.7285	    2.1284	  -34.8960	
 -780.0000	-2.1077E-6	-2.1070E-6	-2.1110E-6	-2.1070E-6	-2.1060E-6	-2.107821E-6	-2.105660E-6	-2.105518E-6	-2.109834E-6	-2.110271E-6	  -19.9957	   12.6040	    2.1281	  -34.9793	
 -790.0000	-2.1147E-6	-2.1120E-6	-2.1190E-6	-2.1160E-6	-2.1120E-6	-2.114628E-6	-2.112529E-6	-2.113400E-6	-2.115897E-6	-2.116685E-6	  -19.9931	   12.5730	    2.1325	  -34.9788	
 -800.0000	-2.1515E-6	-2.1430E-6	-2.1580E-6	-2.1540E-6	-2.1510E-6	-2.145965E-6	-2.149188E-6	-2.146406E-6	-2.144431E-6	-2.143835E-6	  -19.9931	   12.5636	    2.1316	  -34.9895	
 -810.0000	-2.1827E-6	-2.1710E-6	-2.1870E-6	-2.1900E-6	-2.1830E-6	-2.179833E-6	-2.186165E-6	-2.182104E-6	-2.177488E-6	-2.173575E-6	  -19.9906	   12.6107	    2.1284	  -34.9734	
 -820.0000	-2.1645E-6	-2.1680E-6	-2.1650E-6	-2.1650E-6	-2.1600E-6	-2.155744E-6	-2.156622E-6	-2.156126E-6	-2.155768E-6	-2.154460E-6	  -19.9880	   12.5913	    2.1306	  -34.9757	
 -830.0000	-2.1830E-6	-2.1680E-6	-2.1890E-6	-2.1900E-6	-2.1850E-6	-2.179547E-6	-2.177862E-6	-2.176039E-6	-2.182271E-6	-2.182015E-6	  -19.9957	   12.5920	    2.1224	  -35.0140	
 -840.0000	-2.1790E-6	-2.1750E-6	-2.1760E-6	-2.1750E-6	-2.1900E-6	-2.187155E-6	-2.185385E-6	-2.186762E-6	-2.188983E-6	-2.187491E-6	  -19.9957	   12.6296	    2.1287	  -34.9595	
 -850.0000	-2.1978E-6	-2.2000E-6	-2.1950E-6	-2.1970E-6	-2.1990E-6	-2.209894E-6	-2.207490E-6	-2.208106E-6	-2.212054E-6	-2.211925E-6	  -19.9906	   12.6121	    2.1243	  -34.9918	
 -860.0000	-2.2288E-6	-2.2370E-6	-2.2290E-6	-2.2220E-6	-2.2270E-6	-2.233131E-6	-2.233663E-6	-2.237755E-6	-2.232856E-6	-2.228251E-6	  -19.9931	   12.6276	    2.1227	  -34.9891	
 -870.0000	-2.2267E-6	-2.2320E-6	-2.2230E-6	-2.2210E-6	-2.2310E-6	-2.242884E-6	-2.242528E-6	-2.241688E-6	-2.241601E-6	-2.245719E-6	  -20.0033	   12.6137	    2.1237	  -34.9938	
 -880.0000	-2.2348E-6	-2.2400E-6	-2.2380E-6	-2.2310E-6	-2.2300E-6	-2.232259E-6	-2.231446E-6	-2.231919E-6	-2.233091E-6	-2.232581E-6	  -19.9982	   12.6268	    2.1275	  -34.9672	
 -890.0000	-2.2425E-6	-2.2490E-6	-2.2400E-6	-2.2390E-6	-2.2420E-6	-2.248049E-6	-2.245087E-6	-2.250972E-6	-2.249776E-6	-2.246359E-6	  -19.9982	   12.6433	    2.1328	  -34.9312	
 -900.0000	-2.2603E-6	-2.2560E-6	-2.2570E-6	-2.2630E-6	-2.2650E-6	-2.257561E-6	-2.259186E-6	-2.255992E-6	-2.254906E-6	-2.260160E-6	  -20.0033	   12.6538	    2.1293	  -34.9406	
 -910.0000	-2.2675E-6	-2.2740E-6	-2.2730E-6	-2.2660E-6	-2.2570E-6	-2.267972E-6	-2.256888E-6	-2.258162E-6	-2.274310E-6	-2.282529E-6	  -20.0008	   12.6182	    2.1335	  -34.9446	
 -920.0000	-2.2688E-6	-2.2810E-6	-2.2680E-6	-2.2640E-6	-2.2620E-6	-2.260829E-6	-2.258960E-6	-2.259013E-6	-2.262188E-6	-2.263156E-6	  -20.0059	   12.4959	    2.1328	  -35.0281	
 -930.0000	-2.3060E-6	-2.2950E-6	-2.3120E-6	-2.3080E-6	-2.3090E-6	-2.311837E-6	-2.311431E-6	-2.310952E-6	-2.313145E-6	-2.311820E-6	  -20.0084	   12.4941	    2.1325	  -35.0307	
 -940.0000	-2.3025E-6	-2.3100E-6	-2.3040E-6	-2.2930E-6	-2.3030E-6	-2.299666E-6	-2.302795E-6	-2.299544E-6	-2.298475E-6	-2.297851E-6	  -20.0059	   12.4892	    2.1246	  -35.0711	
 -950.0000	-2.3067E-6	-2.2990E-6	-2.3030E-6	-2.3070E-6	-2.3180E-6	-2.328201E-6	-2.325325E-6	-2.329205E-6	-2.328210E-6	-2.330064E-6	  -20.0084	   12.4802	    2.1224	  -35.0875	
 -960.0000	-2.3310E-6	-2.3360E-6	-2.3330E-6	-2.3310E-6	-2.3240E-6	-2.316558E-6	-2.318920E-6	-2.318140E-6	-2.316635E-6	-2.312536E-6	  -20.0109	   12.4604	    2.1230	  -35.0975	
 -970.0000	-2.3295E-6	-2.3310E-6	-2.3250E-6	-2.3320E-6	-2.3300E-6	-2.341973E-6	-2.329964E-6	-2.336113E-6	-2.343428E-6	-2.358386E-6	  -20.0084	   12.4838	    2.1230	  -35.0822	
 -980.0000	-2.3470E-6	-2.3440E-6	-2.3430E-6	-2.3520E-6	-2.3490E-6	-2.342568E-6	-2.346299E-6	-2.343674E-6	-2.340820E-6	-2.339480E-6	  -20.0109	   12.5334	    2.1107	  -35.1079	
 -990.0000	-2.3507E-6	-2.3440E-6	-2.3490E-6	-2.3540E-6	-2.3560E-6	-2.359790E-6	-2.359548E-6	-2.361223E-6	-2.360283E-6	-2.358105E-6	  -20.0084	   12.5556	    2.1075	  -35.1083	
-1000.0000	-2.3745E-6	-2.3690E-6	-2.3770E-6	-2.3800E-6	-2.3720E-6	-2.376136E-6	-2.369719E-6	-2.373686E-6	-2.380469E-6	-2.380671E-6	  -20.0135	   12.5040	    2.1132	  -35.1152	
