#Open Capacitance 1000Hz:Not Measured
#Open Capacitance 1000000Hz:4.319060E-12
#34331_042_2-S_HM_XX_Irrad_1100min_Interstrip
#Date/Time: 11/17/2021 3:28:21 PM
#Sensor Name: 34331_042_2-S_HM_XX_Irrad_1100min
#Type: P
#Annealing Status: 1100 min
#Environment: -20.0C
#Tester: Eric Spencer

#Notes: After Alibava

#Time Delay per Ramp Step (s): 0.000

#Time Delay per Measurement (s) :0.000

#Number of measurements per voltage: 0.000



Strip 	Time	RH	ChuckT	AirT	Global Current	Interstrip C	I_InterstripR_V-0.0	I_InterstripR_V-1.0	I_InterstripR_V-2.0	I_InterstripR_V-3.0	I_InterstripR_V-4.0	I_InterstripR_V-5.0
1	3720025771.144621	1.284493	-20.000000	24.998273	-5.815000E-6	5.317480E-12	-7.931635E-8	-7.949154E-8	-7.967407E-8	-7.986014E-8	-8.007084E-8	-8.025253E-8
2	3720025805.405452	1.308045	-20.000000	24.987751	-5.809000E-6	5.381620E-12	-7.902642E-8	-7.923698E-8	-7.943649E-8	-7.956878E-8	-7.980073E-8	-7.999530E-8
3	3720025839.072793	1.289844	-20.000000	24.980377	-5.797000E-6	5.403250E-12	-7.892641E-8	-7.916115E-8	-7.929698E-8	-7.949918E-8	-7.972566E-8	-7.993626E-8
4	3720025872.019262	1.304955	-20.000000	24.969875	-5.809000E-6	5.412280E-12	-7.899339E-8	-7.920986E-8	-7.940984E-8	-7.955921E-8	-7.978721E-8	-7.996571E-8
5	3720025905.035734	1.316392	-20.000000	24.954932	-5.807000E-6	5.414930E-12	-7.902801E-8	-7.923074E-8	-7.939749E-8	-7.957240E-8	-7.977345E-8	-7.995335E-8
6	3720025938.129915	1.304731	-20.000000	24.959868	-5.806000E-6	5.416220E-12	-7.900083E-8	-7.919317E-8	-7.938500E-8	-7.960264E-8	-7.976909E-8	-7.995585E-8
7	3720025971.269573	1.312883	-20.000000	24.945421	-5.793000E-6	4.340070E-12	-7.911450E-8	-7.922289E-8	-7.931664E-8	-7.947886E-8	-7.989042E-8	-8.003808E-8
8	3720026004.188387	1.282495	-20.000000	24.952197	-5.802000E-6	4.352850E-12	-7.920840E-8	-7.939274E-8	-7.956654E-8	-7.979868E-8	-7.996823E-8	-8.008777E-8
9	3720026037.183803	1.331130	-20.000000	24.941299	-5.803000E-6	5.407130E-12	-7.924514E-8	-7.940873E-8	-7.960229E-8	-7.977719E-8	-7.997460E-8	-8.015459E-8
10	3720026070.176049	1.303614	-20.000000	24.934701	-5.801000E-6	5.416660E-12	-7.923431E-8	-7.943573E-8	-7.964638E-8	-7.983404E-8	-8.002799E-8	-8.023532E-8
11	3720026103.658495	1.304509	-20.000000	24.929727	-5.805000E-6	5.413420E-12	-7.924792E-8	-7.941092E-8	-7.963779E-8	-7.978379E-8	-8.000639E-8	-8.019200E-8
12	3720026137.689505	1.301793	-20.000000	24.933255	-5.806000E-6	4.344330E-12	-7.966536E-8	-7.967517E-8	-7.984797E-8	-8.019763E-8	-8.039353E-8	-8.058620E-8
13	3720026171.450515	1.294121	-20.000000	24.919839	-5.798000E-6	5.415960E-12	-7.960387E-8	-7.983213E-8	-8.000756E-8	-8.019402E-8	-8.041988E-8	-8.058674E-8
14	3720026204.383518	1.311158	-20.000000	24.894987	-5.803000E-6	5.416310E-12	-7.936474E-8	-7.952799E-8	-7.969849E-8	-7.992932E-8	-8.010541E-8	-8.036423E-8
15	3720026237.828605	1.293535	-20.000000	24.907016	-5.801000E-6	5.417480E-12	-7.958000E-8	-7.975247E-8	-8.000075E-8	-8.018517E-8	-8.037113E-8	-8.060245E-8
16	3720026271.571634	1.295672	-20.000000	24.899426	-5.787000E-6	4.347200E-12	-7.962180E-8	-7.964544E-8	-7.976571E-8	-8.007908E-8	-8.033622E-8	-8.048541E-8
17	3720026304.911378	1.328973	-20.000000	24.895029	-5.805000E-6	5.414700E-12	-7.967859E-8	-7.986323E-8	-8.008136E-8	-8.027781E-8	-8.047689E-8	-8.067363E-8
18	3720026338.942444	1.305836	-20.000000	24.888390	-5.803000E-6	5.416450E-12	-7.974451E-8	-7.995393E-8	-8.011428E-8	-8.028380E-8	-8.045062E-8	-8.063481E-8
19	3720026372.672061	1.295601	-20.000000	24.874517	-5.789000E-6	5.417060E-12	-7.973042E-8	-7.997223E-8	-8.017135E-8	-8.035697E-8	-8.055019E-8	-8.074127E-8
20	3720026405.601208	1.313948	-20.000000	24.872377	-5.803000E-6	5.415730E-12	-7.975419E-8	-7.997920E-8	-8.018598E-8	-8.038172E-8	-8.062099E-8	-8.081334E-8
21	3720026438.703684	1.313691	-20.000000	24.868870	-5.800000E-6	5.416900E-12	-7.993115E-8	-8.009116E-8	-8.030963E-8	-8.048383E-8	-8.068619E-8	-8.087770E-8
22	3720026472.117967	1.304922	-20.000000	24.853234	-5.799000E-6	5.415100E-12	-7.991463E-8	-8.009111E-8	-8.028105E-8	-8.049179E-8	-8.067834E-8	-8.084433E-8
23	3720026505.977209	1.310144	-20.000000	24.856265	-5.788000E-6	5.416950E-12	-7.999568E-8	-8.018029E-8	-8.035080E-8	-8.048458E-8	-8.071597E-8	-8.090749E-8
24	3720026538.862745	1.310553	-20.000000	24.858982	-5.802000E-6	5.414170E-12	-8.002016E-8	-8.021381E-8	-8.034868E-8	-8.054696E-8	-8.073333E-8	-8.093615E-8
25	3720026571.924808	1.332746	-20.000000	24.867977	-5.797000E-6	5.418430E-12	-8.012967E-8	-8.034763E-8	-8.054081E-8	-8.066350E-8	-8.086770E-8	-8.110198E-8
26	3720026605.187829	1.304862	-20.000000	24.871208	-5.760000E-6	5.419370E-12	-8.024746E-8	-8.042976E-8	-8.065633E-8	-8.087917E-8	-8.109102E-8	-8.126007E-8
27	3720026638.140649	1.292393	-20.000000	24.851769	-5.780000E-6	5.416990E-12	-8.030262E-8	-8.042691E-8	-8.059323E-8	-8.084294E-8	-8.099422E-8	-8.131876E-8
28	3720026671.050575	1.310092	-20.000000	24.841047	-5.802000E-6	5.415950E-12	-8.042399E-8	-8.061078E-8	-8.081493E-8	-8.104477E-8	-8.118715E-8	-8.138917E-8
29	3720026704.070090	1.294704	-20.000000	24.823132	-5.798000E-6	5.418730E-12	-8.041690E-8	-8.062419E-8	-8.079694E-8	-8.100348E-8	-8.116307E-8	-8.136520E-8
30	3720026737.047935	1.281160	-20.000000	24.822439	-5.794000E-6	5.417080E-12	-8.052142E-8	-8.068501E-8	-8.087466E-8	-8.109151E-8	-8.125127E-8	-8.143611E-8
31	3720026770.239531	1.289327	-20.000000	24.826540	-5.768000E-6	5.418720E-12	-8.045511E-8	-8.066518E-8	-8.086550E-8	-8.105571E-8	-8.125226E-8	-8.142948E-8
32	3720026803.271305	1.329135	-20.000000	24.809143	-5.787000E-6	4.354360E-12	-8.056168E-8	-8.069443E-8	-8.082461E-8	-8.096657E-8	-8.116277E-8	-8.142207E-8
33	3720026836.195727	1.295662	-20.000000	24.813899	-5.794000E-6	5.420250E-12	-8.058985E-8	-8.082633E-8	-8.099887E-8	-8.118833E-8	-8.136144E-8	-8.154974E-8
34	3720026869.209915	1.298284	-20.000000	24.816236	-5.792000E-6	5.420480E-12	-8.061678E-8	-8.082702E-8	-8.101782E-8	-8.118419E-8	-8.138546E-8	-8.158089E-8
35	3720026902.350166	1.298890	-20.000000	24.808052	-5.776000E-6	5.418310E-12	-8.065997E-8	-8.087708E-8	-8.107013E-8	-8.124773E-8	-8.145724E-8	-8.162457E-8
36	3720026935.216582	1.311143	-20.000000	24.788771	-5.791000E-6	5.417370E-12	-8.062189E-8	-8.082056E-8	-8.101718E-8	-8.124481E-8	-8.143069E-8	-8.161959E-8
37	3720026968.199139	1.287659	-20.000000	24.783281	-5.788000E-6	4.383800E-12	-8.086018E-8	-8.102865E-8	-8.121882E-8	-8.134822E-8	-8.149326E-8	-8.167820E-8
38	3720027001.237437	1.300811	-20.000000	24.787860	-5.788000E-6	5.415570E-12	-8.079391E-8	-8.101773E-8	-8.119342E-8	-8.139040E-8	-8.158856E-8	-8.179816E-8
39	3720027034.430054	1.284175	-20.000000	24.785164	-5.770000E-6	5.416330E-12	-8.095891E-8	-8.114491E-8	-8.131053E-8	-8.151503E-8	-8.170429E-8	-8.195062E-8
40	3720027067.342907	1.321405	-20.000000	24.780904	-5.788000E-6	5.415800E-12	-8.078561E-8	-8.098293E-8	-8.113010E-8	-8.135115E-8	-8.156820E-8	-8.176804E-8
41	3720027100.336294	1.288079	-20.000000	24.766319	-5.788000E-6	5.417410E-12	-8.102922E-8	-8.120821E-8	-8.142334E-8	-8.163011E-8	-8.182097E-8	-8.202409E-8
42	3720027133.322546	1.297190	-20.000000	24.774008	-5.791000E-6	5.418400E-12	-8.102383E-8	-8.125467E-8	-8.144225E-8	-8.165209E-8	-8.182995E-8	-8.200748E-8
43	3720027166.458920	1.309297	-20.000000	24.765626	-5.788000E-6	5.417930E-12	-8.104546E-8	-8.122320E-8	-8.140900E-8	-8.160852E-8	-8.178510E-8	-8.196474E-8
44	3720027199.594038	1.300412	-20.000000	24.780190	-5.786000E-6	5.418980E-12	-8.116695E-8	-8.137039E-8	-8.155214E-8	-8.175055E-8	-8.193297E-8	-8.212907E-8
45	3720027232.627349	1.305842	-20.000000	24.743868	-5.786000E-6	5.420110E-12	-8.117649E-8	-8.137248E-8	-8.158158E-8	-8.179849E-8	-8.197927E-8	-8.216956E-8
46	3720027265.661750	1.301747	-20.000000	24.745294	-5.781000E-6	5.419630E-12	-8.119775E-8	-8.141302E-8	-8.158110E-8	-8.181477E-8	-8.200698E-8	-8.219050E-8
47	3720027298.653823	1.291129	-20.000000	24.745174	-5.785000E-6	5.423190E-12	-8.137363E-8	-8.166344E-8	-8.183937E-8	-8.208174E-8	-8.225022E-8	-8.244123E-8
48	3720027331.726280	1.282009	-20.000000	24.726545	-5.772000E-6	5.419500E-12	-8.112499E-8	-8.136136E-8	-8.154309E-8	-8.171531E-8	-8.192696E-8	-8.210311E-8
49	3720027365.068921	1.283976	-20.000000	24.743608	-5.780000E-6	5.418330E-12	-8.111651E-8	-8.131948E-8	-8.150999E-8	-8.170318E-8	-8.190086E-8	-8.208419E-8
50	3720027399.307772	1.277097	-20.000000	24.741210	-5.779000E-6	5.416670E-12	-8.140648E-8	-8.158980E-8	-8.178345E-8	-8.193715E-8	-8.213640E-8	-8.233011E-8
51	3720027432.952691	1.290315	-20.000000	24.741291	-5.756000E-6	5.417350E-12	-8.118914E-8	-8.135129E-8	-8.155613E-8	-8.178095E-8	-8.194360E-8	-8.211721E-8
52	3720027466.185507	1.295840	-20.000000	24.714140	-5.776000E-6	5.417050E-12	-8.186498E-8	-8.211628E-8	-8.234561E-8	-8.255875E-8	-8.277546E-8	-8.297400E-8
53	3720027500.204714	1.297217	-20.000000	24.718343	-5.778000E-6	5.418170E-12	-8.144369E-8	-8.167819E-8	-8.192983E-8	-8.216655E-8	-8.243076E-8	-8.263073E-8
54	3720027534.213897	1.295948	-20.000000	24.731699	-5.777000E-6	5.415270E-12	-8.133091E-8	-8.152459E-8	-8.172142E-8	-8.186938E-8	-8.206833E-8	-8.227953E-8
55	3720027568.276886	1.299100	-20.000000	24.720384	-5.772000E-6	5.415260E-12	-8.145662E-8	-8.165333E-8	-8.187334E-8	-8.206361E-8	-8.226657E-8	-8.244906E-8
56	3720027602.299404	1.268305	-20.000000	24.711288	-5.772000E-6	5.413450E-12	-8.163127E-8	-8.180393E-8	-8.204756E-8	-8.224072E-8	-8.242841E-8	-8.260277E-8
57	3720027636.157655	1.274921	-20.000000	24.715530	-5.748000E-6	5.406490E-12	-8.186574E-8	-8.203708E-8	-8.223962E-8	-8.242235E-8	-8.259813E-8	-8.279870E-8
58	3720027669.237863	1.291702	-20.000000	24.726010	-5.750000E-6	5.384630E-12	-8.196928E-8	-8.212768E-8	-8.233754E-8	-8.252174E-8	-8.275389E-8	-8.295191E-8
59	3720027702.280055	1.287707	-20.000000	24.700231	-5.756000E-6	5.319760E-12	-8.271929E-8	-8.291087E-8	-8.310184E-8	-8.332188E-8	-8.349748E-8	-8.370817E-8
#Open Capacitance 1000Hz:Not Measured
#Open Capacitance 1000000Hz:4.317550E-12
#34331_042_2-S_HM_XX_Irrad_1100min_Interstrip
#Date/Time: 11/17/2021 4:16:05 PM
#Sensor Name: 34331_042_2-S_HM_XX_Irrad_1100min
#Type: P
#Annealing Status: 1100 min
#Environment: -20.0C
#Tester: Eric Spencer

#Notes: After Alibava

#Time Delay per Ramp Step (s): 0.000

#Time Delay per Measurement (s) :0.000

#Number of measurements per voltage: 0.000



Strip 	Time	RH	ChuckT	AirT	Global Current	Interstrip C	I_InterstripR_V-0.0	I_InterstripR_V-1.0	I_InterstripR_V-2.0	I_InterstripR_V-3.0	I_InterstripR_V-4.0	I_InterstripR_V-5.0
7	3720028635.175127	1.296818	-20.000000	24.658260	-5.778000E-6	5.417750E-12	-7.871854E-8	-7.890469E-8	-7.909827E-8	-7.926192E-8	-7.943717E-8	-7.960869E-8
8	3720028669.339152	1.295338	-20.000000	24.650649	-5.771000E-6	5.315090E-12	-7.876324E-8	-7.892181E-8	-7.914741E-8	-7.932121E-8	-7.952148E-8	-7.969283E-8
12	3720028703.113726	1.290159	-20.000000	24.663629	-5.757000E-6	4.333890E-12	-7.920016E-8	-7.920644E-8	-7.947011E-8	-7.951090E-8	-7.991742E-8	-8.013367E-8
16	3720028736.172075	1.283596	-20.000000	24.629387	-5.748000E-6	5.416270E-12	-7.918661E-8	-7.938526E-8	-7.960050E-8	-7.978489E-8	-7.985591E-8	-8.011425E-8
32	3720028769.791691	1.288751	-20.000000	24.633883	-5.768000E-6	4.344810E-12	-8.020286E-8	-8.029603E-8	-8.049381E-8	-8.065699E-8	-8.077178E-8	-8.095406E-8
37	3720028803.421523	1.271642	-20.000000	24.616208	-5.763000E-6	5.416040E-12	-8.050048E-8	-8.067843E-8	-8.088365E-8	-8.108358E-8	-8.126524E-8	-8.133531E-8
#Open Capacitance 1000Hz:Not Measured
#Open Capacitance 1000000Hz:4.314050E-12
#34331_042_2-S_HM_XX_Irrad_1100min_Interstrip
#Date/Time: 11/17/2021 4:21:24 PM
#Sensor Name: 34331_042_2-S_HM_XX_Irrad_1100min
#Type: P
#Annealing Status: 1100 min
#Environment: -20.0C
#Tester: Eric Spencer

#Notes: After Alibava

#Time Delay per Ramp Step (s): 0.000

#Time Delay per Measurement (s) :0.000

#Number of measurements per voltage: 0.000



Strip 	Time	RH	ChuckT	AirT	Global Current	Interstrip C	I_InterstripR_V-0.0	I_InterstripR_V-1.0	I_InterstripR_V-2.0	I_InterstripR_V-3.0	I_InterstripR_V-4.0	I_InterstripR_V-5.0
8	3720028954.449991	1.288216	-20.000000	24.601958	-5.767000E-6	4.390500E-12	-7.872664E-8	-7.887928E-8	-7.905272E-8	-7.924520E-8	-7.938982E-8	-7.956080E-8
12	3720028988.326167	1.290307	-20.000000	24.606953	-5.743000E-6	5.337320E-12	-7.916442E-8	-7.930778E-8	-7.950769E-8	-7.974222E-8	-7.992005E-8	-8.007505E-8
32	3720029021.804630	1.297883	-20.000000	24.572730	-5.764000E-6	4.333370E-12	-8.023620E-8	-8.021993E-8	-8.042841E-8	-8.066280E-8	-8.086278E-8	-8.105303E-8
#Open Capacitance 1000Hz:Not Measured
#Open Capacitance 1000000Hz:4.314610E-12
#34331_042_2-S_HM_XX_Irrad_1100min_Interstrip
#Date/Time: 11/17/2021 4:24:52 PM
#Sensor Name: 34331_042_2-S_HM_XX_Irrad_1100min
#Type: P
#Annealing Status: 1100 min
#Environment: -20.0C
#Tester: Eric Spencer

#Notes: After Alibava

#Time Delay per Ramp Step (s): 0.000

#Time Delay per Measurement (s) :0.000

#Number of measurements per voltage: 0.000



Strip 	Time	RH	ChuckT	AirT	Global Current	Interstrip C	I_InterstripR_V-0.0	I_InterstripR_V-1.0	I_InterstripR_V-2.0	I_InterstripR_V-3.0	I_InterstripR_V-4.0	I_InterstripR_V-5.0
8	3720029162.425698	1.267165	-20.000000	24.568371	-5.762000E-6	4.347660E-12	-7.868793E-8	-7.875089E-8	-7.880671E-8	-7.923646E-8	-7.942523E-8	-7.962124E-8
32	3720029196.748055	1.267637	-20.000000	24.575306	-5.760000E-6	4.337120E-12	-8.014209E-8	-8.017187E-8	-8.048589E-8	-8.070818E-8	-8.089996E-8	-8.114021E-8
#Open Capacitance 1000Hz:Not Measured
#Open Capacitance 1000000Hz:4.317540E-12
#34331_042_2-S_HM_XX_Irrad_1100min_Interstrip
#Date/Time: 11/17/2021 4:29:23 PM
#Sensor Name: 34331_042_2-S_HM_XX_Irrad_1100min
#Type: P
#Annealing Status: 1100 min
#Environment: -20.0C
#Tester: Eric Spencer

#Notes: After Alibava

#Time Delay per Ramp Step (s): 0.000

#Time Delay per Measurement (s) :0.000

#Number of measurements per voltage: 0.000



Strip 	Time	RH	ChuckT	AirT	Global Current	Interstrip C	I_InterstripR_V-0.0	I_InterstripR_V-1.0	I_InterstripR_V-2.0	I_InterstripR_V-3.0	I_InterstripR_V-4.0	I_InterstripR_V-5.0
8	3720029433.152046	1.278677	-20.000000	24.529787	-5.770000E-6	5.417310E-12	-7.872116E-8	-7.888242E-8	-7.909914E-8	-7.928423E-8	-7.950488E-8	-7.968747E-8
32	3720029467.459654	1.291827	-20.000000	24.526795	-5.767000E-6	5.416780E-12	-8.014731E-8	-8.035870E-8	-8.056025E-8	-8.074872E-8	-8.094855E-8	-8.114685E-8
